Sampling fequency [Hz]:	100	x-velocity [mm/s]: 	100	Track length [mm]:	10	Cycles:	9000
Fx	Fy	Fz	Tx	Ty	Tz	x-Position
0.716	3.459	-24.686	0.295	-0.133	-0.012	-15005.000
1.526	3.430	-24.543	0.294	-0.136	-0.011	1.000
4.958	3.306	-24.848	0.293	0.087	0.079	28.000
0.012	1.687	-24.643	0.388	-0.103	0.049	68.000
4.329	1.057	-24.987	0.383	0.034	0.026	158.000
3.316	2.205	-24.035	0.410	-0.005	0.032	288.000
3.619	1.574	-25.186	0.410	-0.019	0.068	435.000
3.522	1.255	-23.805	0.422	-0.012	0.035	648.000
3.715	0.722	-25.307	0.430	-0.039	0.058	873.000
3.340	0.305	-24.663	0.443	0.007	0.040	1104.000
3.333	0.299	-25.663	0.456	-0.005	0.032	1137.000
2.942	0.294	-25.653	0.471	0.034	0.044	1716.000
3.598	0.314	-26.396	0.472	0.028	0.042	2055.000
3.371	0.116	-26.192	0.476	0.038	0.057	2429.000
4.049	0.133	-27.157	0.474	0.054	0.066	2757.000
3.419	-0.116	-27.043	0.482	0.071	0.046	2966.000
4.969	-0.167	-27.270	0.484	0.121	0.063	3765.000
3.381	-0.099	-27.832	0.486	0.139	0.061	4212.000
3.175	0.122	-27.728	0.486	0.134	0.062	4601.000
5.014	0.175	-28.079	0.478	0.183	0.050	5111.000
3.430	-0.098	-28.177	0.480	0.172	0.065	5475.000
4.354	0.127	-28.207	0.473	0.174	0.029	5921.000
2.082	0.183	-27.310	0.474	0.159	0.064	6145.000
3.032	0.401	-28.044	0.483	0.159	0.049	6145.000
2.395	0.240	-27.913	0.486	0.169	0.036	6896.000
2.521	0.205	-27.127	0.473	0.175	0.050	7124.000
2.629	-0.157	-26.512	0.465	0.169	0.053	7309.000
1.996	-0.320	-24.632	0.451	0.203	0.028	7381.000
2.240	-0.151	-26.198	0.457	0.183	0.047	7381.000
0.250	-0.568	-25.888	0.452	0.214	0.035	7816.000
6.326	0.637	-27.353	0.456	0.115	0.089	7902.000
-1.286	-0.973	-24.112	0.447	0.227	0.026	7976.000
3.454	-0.163	-25.004	0.441	0.162	0.022	7990.000
-0.230	-0.509	-22.696	0.436	0.130	0.035	7999.000
-0.247	-0.862	-23.038	0.435	0.032	-0.029	7989.000
-1.946	-0.443	-23.437	0.421	0.076	-0.087	7886.000
-3.196	-0.145	-23.403	0.409	0.018	-0.034	7808.000
0.714	0.125	-22.800	0.407	-0.019	-0.018	7645.000
-1.869	-0.627	-22.894	0.398	0.018	-0.058	7512.000
-2.309	0.210	-22.229	0.398	-0.015	-0.033	7289.000
-1.349	0.519	-21.670	0.388	-0.042	-0.021	7053.000
-2.289	0.175	-21.765	0.385	-0.051	-0.051	7053.000
-2.114	-0.010	-20.758	0.376	-0.058	-0.024	6541.000
-3.279	-0.242	-20.097	0.374	-0.062	-0.044	6221.000
-2.651	-0.038	-20.799	0.386	-0.087	-0.033	6017.000
-2.814	-0.012	-19.731	0.369	-0.111	-0.020	5439.000
-2.920	-0.630	-19.516	0.364	-0.098	-0.051	5338.000
-1.916	0.074	-19.006	0.366	-0.111	-0.056	4611.000
-2.872	-0.202	-20.176	0.374	-0.099	-0.023	4201.000
-3.879	-0.335	-20.638	0.361	-0.130	-0.023	3719.000
0.347	0.447	-18.880	0.354	-0.112	-0.044	3317.000
-2.582	-0.354	-19.403	0.367	-0.156	-0.033	2735.000
-2.257	-0.306	-18.804	0.372	-0.165	-0.037	2372.000
-3.181	-0.491	-19.873	0.380	-0.181	-0.024	1984.000
-2.509	-0.630	-17.906	0.370	-0.182	-0.028	1707.000
-2.230	-0.550	-19.907	0.389	-0.198	-0.025	1306.000
-1.692	0.300	-20.777	0.407	-0.201	-0.030	1067.000
-1.918	-0.212	-20.518	0.390	-0.192	-0.040	833.000
-1.107	0.520	-20.492	0.394	-0.216	-0.033	682.000
-1.436	-0.082	-21.966	0.386	-0.223	-0.027	481.000
-1.616	0.130	-21.461	0.390	-0.216	-0.029	288.000
-3.230	-0.560	-23.476	0.394	-0.160	-0.050	210.000
0.538	2.504	-20.883	0.394	-0.248	-0.023	210.000
-4.233	0.299	-23.249	0.392	-0.199	-0.022	19.000
-0.399	0.488	-22.980	0.392	-0.216	-0.042	0.000
-0.133	1.239	-23.251	0.400	-0.198	-0.013	2.000
3.633	1.351	-24.897	0.401	-0.023	0.042	26.000
3.350	1.348	-25.513	0.408	0.010	0.036	44.000
-1.188	-0.183	-27.249	0.403	0.015	0.048	44.000
5.746	1.569	-25.210	0.427	-0.116	0.041	270.000
1.700	0.383	-28.085	0.438	-0.056	0.056	493.000
3.416	1.590	-25.990	0.443	-0.050	0.031	546.000
2.329	0.843	-27.262	0.448	-0.030	0.048	904.000
3.116	0.832	-25.790	0.458	-0.008	0.036	1126.000
2.778	0.278	-27.144	0.473	-0.008	0.055	1421.000
3.240	0.221	-27.597	0.489	0.024	0.048	1773.000
3.405	0.017	-28.103	0.494	0.021	0.058	2142.000
4.548	0.252	-27.937	0.498	0.060	0.044	2484.000
4.151	0.408	-29.315	0.497	0.068	0.074	2811.000
4.248	0.196	-28.564	0.506	0.093	0.064	3409.000
2.570	0.428	-29.596	0.513	0.080	0.058	3784.000
5.334	0.513	-28.899	0.499	0.143	0.056	4370.000
1.111	0.770	-28.973	0.498	0.078	0.060	4835.000
3.909	0.152	-28.448	0.500	0.147	0.064	5225.000
2.874	0.320	-30.339	0.508	0.146	0.050	5580.000
4.693	0.778	-29.092	0.491	0.180	0.043	6006.000
4.157	-0.180	-27.779	0.484	0.194	0.047	6306.000
3.862	-0.098	-27.569	0.481	0.195	0.052	6572.000
4.445	0.387	-27.662	0.488	0.215	0.041	6861.000
3.179	0.152	-28.067	0.482	0.216	0.046	6861.000
3.334	-0.114	-28.526	0.487	0.229	0.046	7351.000
3.162	0.048	-26.873	0.483	0.228	0.035	7582.000
3.061	-0.373	-25.934	0.470	0.181	0.047	7719.000
3.874	-0.755	-25.272	0.466	0.214	0.021	7845.000
3.057	0.503	-27.023	0.449	0.148	0.063	7845.000
1.340	-0.469	-24.612	0.461	0.192	0.019	7845.000
1.901	-0.048	-26.101	0.453	0.142	0.056	7999.000
1.037	0.013	-25.652	0.458	0.149	0.016	7999.000
-1.140	-0.467	-23.915	0.448	0.046	-0.046	7966.000
-1.081	-0.516	-23.446	0.431	0.066	-0.077	7913.000
0.978	0.110	-23.402	0.417	0.004	-0.027	7827.000
0.696	0.090	-23.760	0.418	0.019	-0.022	7720.000
-2.299	-0.261	-22.825	0.403	0.029	-0.044	7518.000
-1.522	0.025	-23.006	0.406	-0.007	-0.039	7340.000
-1.261	0.043	-22.419	0.403	-0.047	-0.018	7079.000
-2.778	-0.316	-22.002	0.390	-0.066	-0.031	6881.000
-2.722	0.363	-20.831	0.390	-0.057	-0.035	6682.000
-2.581	-0.376	-21.722	0.387	-0.078	-0.035	6191.000
-2.263	-0.135	-20.343	0.388	-0.064	-0.030	5879.000
-2.021	-0.502	-22.462	0.395	-0.069	-0.040	5763.000
-2.246	-0.103	-19.757	0.378	-0.079	-0.053	5763.000
-1.803	0.171	-19.467	0.363	-0.073	-0.046	4595.000
-1.115	-0.204	-19.054	0.350	-0.093	-0.036	4187.000
-3.305	-0.068	-19.867	0.360	-0.147	-0.027	3609.000
-0.673	-0.075	-19.658	0.364	-0.113	-0.034	3242.000
-2.797	-0.055	-18.032	0.362	-0.174	-0.025	2740.000
-2.229	-0.638	-18.966	0.375	-0.151	-0.038	2400.000
-2.633	0.126	-20.801	0.386	-0.198	-0.027	2028.000
-2.148	-0.575	-19.672	0.384	-0.176	-0.022	1670.000
-2.388	-0.202	-20.111	0.400	-0.189	-0.038	1580.000
-2.273	-0.314	-19.938	0.386	-0.186	-0.027	1580.000
-1.448	-0.081	-18.934	0.375	-0.176	-0.036	802.000
-0.390	0.203	-21.417	0.399	-0.197	-0.028	685.000
-0.968	0.470	-21.673	0.390	-0.215	-0.028	419.000
-0.694	1.360	-21.259	0.405	-0.205	-0.037	295.000
-4.637	-1.071	-25.027	0.403	-0.154	-0.038	180.000
0.263	2.700	-23.197	0.410	-0.205	-0.050	117.000
-4.270	-0.157	-24.677	0.403	-0.193	0.001	117.000
0.354	1.688	-23.075	0.408	-0.241	-0.037	0.000
2.256	1.044	-24.835	0.405	-0.087	0.004	8.000
3.089	1.349	-25.220	0.419	-0.026	0.049	72.000
0.958	1.609	-27.782	0.434	-0.006	0.025	150.000
7.370	3.391	-25.729	0.449	-0.132	0.014	175.000
0.815	1.983	-27.226	0.445	-0.089	0.050	175.000
4.386	1.944	-27.483	0.459	-0.060	0.035	517.000
3.495	1.184	-29.102	0.462	-0.046	0.062	747.000
3.021	1.164	-27.054	0.464	-0.017	0.036	976.000
2.615	0.697	-27.299	0.474	-0.021	0.041	1337.000
2.952	0.557	-26.429	0.474	-0.005	0.049	1518.000
3.066	-0.548	-27.473	0.482	0.002	0.065	1893.000
3.944	-0.161	-27.804	0.494	0.024	0.060	2292.000
3.258	0.267	-29.032	0.497	0.043	0.084	2495.000
3.680	0.359	-27.226	0.498	0.084	0.020	3004.000
2.498	-0.627	-28.031	0.493	0.050	0.068	3265.000
1.849	0.708	-29.325	0.511	0.095	0.051	4045.000
4.919	1.077	-29.349	0.509	0.106	0.043	4443.000
2.413	0.905	-30.345	0.518	0.075	0.092	5000.000
3.726	0.594	-29.902	0.504	0.150	0.058	5339.000
2.590	0.702	-29.118	0.506	0.142	0.053	5829.000
4.424	0.497	-29.202	0.498	0.196	0.044	5829.000
4.137	0.534	-30.437	0.511	0.204	0.052	5829.000
4.216	0.414	-29.265	0.507	0.225	0.045	6791.000
4.246	0.095	-29.806	0.504	0.215	0.058	7003.000
3.919	0.615	-29.444	0.498	0.209	0.048	7208.000
3.274	0.485	-28.633	0.511	0.231	0.041	7335.000
2.796	0.251	-28.136	0.489	0.164	0.050	7663.000
2.846	0.962	-26.135	0.474	0.186	0.021	7786.000
4.911	0.203	-27.043	0.459	0.125	0.088	7870.000
1.652	-0.527	-24.901	0.455	0.232	0.017	7940.000
3.713	0.388	-25.779	0.449	0.104	0.029	7990.000
1.207	-0.553	-24.204	0.448	0.148	0.019	7990.000
1.057	-0.471	-23.645	0.437	0.107	-0.003	7998.000
-2.842	-0.949	-22.234	0.431	0.019	-0.029	7989.000
1.003	-0.036	-22.902	0.430	0.027	0.012	7913.000
2.084	0.246	-24.629	0.422	-0.034	-0.010	7832.000
-2.303	-0.548	-22.813	0.411	0.032	-0.063	7652.000
-0.713	0.376	-21.758	0.411	-0.017	-0.004	7496.000
-2.299	-0.192	-22.936	0.399	-0.057	-0.014	7331.000
-3.240	-0.176	-22.524	0.403	-0.036	-0.071	7071.000
-1.891	0.228	-22.537	0.406	-0.047	-0.015	6896.000
-1.539	0.050	-22.495	0.404	-0.008	-0.031	6526.000
-1.139	-0.049	-21.303	0.398	-0.039	-0.046	6274.000
-0.720	-0.163	-21.275	0.383	-0.034	-0.018	5877.000
-1.296	-0.368	-20.698	0.379	-0.052	-0.039	5532.000
-1.051	-0.118	-20.172	0.382	-0.074	-0.014	5182.000
-0.688	-0.484	-20.820	0.373	-0.066	-0.034	5182.000
-0.518	-0.187	-19.702	0.358	-0.064	-0.049	4362.000
-1.207	-0.272	-19.375	0.346	-0.103	-0.014	3656.000
-1.253	-0.089	-19.558	0.354	-0.079	-0.034	3206.000
-0.598	0.007	-18.965	0.359	-0.096	-0.042	2850.000
-2.373	-0.350	-18.615	0.364	-0.129	-0.033	2850.000
-2.259	-0.372	-18.299	0.355	-0.148	-0.048	2134.000
-3.182	-0.483	-18.504	0.366	-0.185	-0.036	1634.000
-2.320	-0.521	-19.250	0.375	-0.170	-0.014	1369.000
-1.941	0.082	-20.120	0.389	-0.173	-0.034	1050.000
-1.602	-0.544	-20.119	0.382	-0.184	-0.022	786.000
-2.045	-0.239	-21.052	0.404	-0.176	-0.041	656.000
-1.824	0.219	-23.255	0.412	-0.223	-0.030	513.000
-2.409	1.828	-24.414	0.422	-0.227	-0.041	300.000
-0.449	1.022	-25.085	0.429	-0.279	-0.015	164.000
-4.255	-0.008	-26.755	0.428	-0.226	-0.054	65.000
-3.862	0.481	-24.603	0.428	-0.278	-0.044	65.000
0.063	1.117	-24.953	0.430	-0.212	-0.022	0.000
-0.339	0.844	-25.587	0.425	-0.171	-0.003	8.000
3.312	1.050	-25.760	0.426	-0.043	0.032	35.000
2.072	0.528	-27.012	0.421	-0.038	0.043	112.000
-3.255	-0.689	-25.976	0.425	0.091	0.012	224.000
5.069	2.816	-25.555	0.427	-0.054	0.038	304.000
2.328	0.900	-23.991	0.434	-0.031	0.028	520.000
3.062	0.868	-24.018	0.429	-0.051	0.043	734.000
2.047	-0.292	-25.781	0.430	-0.032	0.046	899.000
3.280	0.460	-23.797	0.434	-0.017	0.036	1217.000
2.675	-0.350	-24.953	0.446	-0.002	0.045	1505.000
3.713	0.095	-25.978	0.465	0.021	0.035	1789.000
3.889	0.438	-27.690	0.484	0.033	0.059	1789.000
4.489	0.290	-28.063	0.493	0.038	0.080	1789.000
3.486	0.959	-28.892	0.506	0.073	0.038	1789.000
3.332	-0.033	-29.512	0.512	0.091	0.045	1789.000
5.800	0.085	-30.658	0.516	0.137	0.062	1789.000
2.269	1.035	-31.430	0.533	0.098	0.040	1789.000
5.160	1.379	-31.426	0.537	0.165	0.106	1789.000
3.160	0.881	-32.517	0.540	0.131	0.020	1789.000
3.572	0.944	-32.218	0.546	0.174	0.061	5729.000
2.283	0.958	-31.825	0.540	0.176	0.072	6142.000
1.684	1.004	-31.973	0.538	0.142	0.026	6392.000
2.610	0.432	-31.640	0.526	0.163	0.065	6727.000
1.480	0.821	-29.907	0.527	0.170	0.039	6875.000
2.839	0.460	-30.718	0.525	0.189	0.038	7105.000
1.209	0.168	-29.533	0.503	0.209	0.047	7357.000
3.369	0.358	-27.381	0.494	0.190	0.034	7597.000
1.810	-0.461	-25.929	0.470	0.182	0.025	7760.000
5.327	1.180	-24.219	0.466	0.099	0.034	7872.000
0.387	-0.647	-26.661	0.448	0.133	0.077	7872.000
2.810	-0.008	-23.486	0.451	0.211	-0.005	7872.000
1.603	-0.520	-26.042	0.450	0.149	0.037	8000.000
-2.637	-0.354	-23.759	0.449	0.013	-0.024	7992.000
-0.786	-0.090	-22.771	0.429	0.007	-0.007	7933.000
-0.710	-0.231	-22.804	0.408	-0.007	-0.026	7835.000
-5.261	-1.488	-21.619	0.394	0.054	-0.048	7835.000
-0.428	1.170	-20.715	0.396	-0.022	-0.020	7835.000
-3.737	-0.696	-21.665	0.384	-0.025	-0.020	7835.000
-3.083	-0.358	-20.012	0.373	-0.025	-0.052	7835.000
-1.514	-0.462	-19.783	0.365	-0.037	-0.009	7835.000
-1.369	-0.275	-19.496	0.359	-0.032	-0.023	7835.000
-1.671	-0.444	-18.995	0.354	-0.053	-0.031	7835.000
-1.407	0.071	-18.264	0.352	-0.055	-0.023	7835.000
-2.053	-0.446	-18.034	0.341	-0.070	-0.024	7835.000
-1.421	0.118	-17.248	0.331	-0.062	-0.044	7835.000
-2.327	-0.039	-17.154	0.326	-0.077	-0.040	7835.000
-1.407	-0.076	-16.392	0.318	-0.079	-0.015	7835.000
0.293	-0.487	-16.746	0.299	-0.055	-0.026	7835.000
-2.286	-0.087	-15.845	0.303	-0.110	-0.029	7835.000
0.168	-0.317	-15.505	0.299	-0.062	-0.016	7835.000
-1.886	0.056	-15.242	0.305	-0.125	-0.017	7835.000
-0.557	0.001	-14.463	0.301	-0.105	-0.039	7835.000
-2.409	0.215	-14.478	0.302	-0.148	-0.013	7835.000
-2.097	-0.765	-14.010	0.293	-0.131	0.001	7835.000
-2.396	-0.660	-14.289	0.287	-0.151	-0.036	7835.000
-1.609	-0.399	-13.721	0.285	-0.139	-0.009	7835.000
-1.902	-0.992	-14.001	0.273	-0.134	-0.018	7835.000
-0.422	-0.225	-13.272	0.271	-0.147	-0.024	7835.000
-0.485	-0.082	-13.857	0.266	-0.147	-0.021	7835.000
-1.573	0.152	-13.732	0.261	-0.127	-0.028	7835.000
-0.508	-2.866	-15.956	0.251	-0.078	-0.015	7835.000
-2.342	0.308	-12.812	0.271	-0.174	0.008	53.000
0.314	0.238	-13.748	0.259	-0.150	-0.025	9.000
-1.325	0.658	-15.225	0.272	-0.128	-0.008	0.000
2.598	1.023	-17.628	0.285	-0.036	0.014	2.000
2.500	0.713	-17.981	0.296	0.008	0.030	2.000
1.032	0.255	-18.518	0.300	0.007	0.041	2.000
4.085	-1.258	-14.890	0.315	-0.015	-0.005	2.000
0.098	0.820	-20.337	0.324	-0.086	0.044	2.000
1.827	1.224	-17.914	0.343	-0.027	0.012	2.000
2.426	0.403	-20.260	0.344	-0.060	0.046	2.000
2.109	0.124	-19.786	0.353	-0.007	0.035	2.000
2.098	0.111	-19.466	0.365	-0.005	0.033	2.000
2.472	0.080	-19.870	0.378	-0.004	0.040	2.000
2.231	0.000	-21.124	0.388	0.007	0.027	2.000
2.896	-0.223	-21.367	0.400	0.019	0.041	2.000
2.707	-0.117	-22.759	0.405	0.020	0.051	2453.000
2.635	0.321	-22.414	0.417	0.086	0.044	2453.000
2.594	0.093	-23.577	0.423	0.030	0.048	2453.000
1.609	-0.004	-24.621	0.432	0.063	0.045	2453.000
3.447	0.777	-24.568	0.445	0.076	0.040	2453.000
1.763	0.422	-25.918	0.457	0.056	0.090	2453.000
3.010	0.221	-25.859	0.453	0.133	0.029	2453.000
2.371	0.201	-26.793	0.465	0.130	0.055	5772.000
3.767	0.369	-28.303	0.479	0.193	0.042	6123.000
3.673	0.694	-28.691	0.486	0.192	0.049	6123.000
3.825	0.476	-28.765	0.493	0.221	0.053	6123.000
3.984	0.260	-29.434	0.500	0.206	0.042	7074.000
4.045	0.689	-30.709	0.519	0.218	0.054	7234.000
2.846	0.585	-30.170	0.521	0.238	0.035	7234.000
3.465	0.461	-30.791	0.523	0.196	0.054	7633.000
4.088	1.148	-30.788	0.528	0.223	0.038	7749.000
7.011	0.271	-31.280	0.518	0.174	0.083	7821.000
2.085	0.096	-31.100	0.524	0.258	0.038	7821.000
4.438	0.644	-30.979	0.524	0.164	0.041	7993.000
1.282	0.431	-31.441	0.525	0.188	0.040	8000.000
1.166	0.482	-30.600	0.525	0.141	0.001	7998.000
-5.084	0.418	-30.346	0.526	-0.057	-0.040	7998.000
-4.375	0.536	-29.875	0.517	-0.047	-0.063	7998.000
-3.277	0.186	-29.019	0.506	-0.026	-0.051	7792.000
-4.934	-0.279	-26.756	0.493	-0.034	-0.015	7626.000
-1.978	0.218	-26.084	0.481	-0.074	-0.046	7540.000
-2.999	-0.425	-22.903	0.436	-0.049	-0.035	7384.000
-2.773	-0.464	-21.580	0.404	-0.035	-0.011	7068.000
-1.915	-0.307	-19.400	0.366	-0.015	-0.033	6831.000
-1.136	-0.757	-19.354	0.352	-0.028	-0.016	6831.000
-1.651	-0.072	-18.163	0.351	-0.025	-0.031	6831.000
-1.120	-0.319	-18.074	0.339	-0.037	-0.022	5802.000
-1.295	-0.034	-17.338	0.326	-0.062	-0.021	5495.000
-1.015	-0.085	-16.617	0.317	-0.041	-0.019	5033.000
-2.089	-0.265	-16.684	0.310	-0.064	-0.003	4548.000
-2.082	0.031	-15.714	0.308	-0.072	-0.041	4385.000
0.182	-0.356	-15.457	0.293	-0.062	-0.023	4385.000
-2.111	-0.131	-15.559	0.300	-0.124	-0.022	4385.000
0.178	0.028	-14.520	0.295	-0.065	-0.036	2691.000
-1.282	0.257	-15.131	0.310	-0.125	-0.013	2360.000
0.076	-0.287	-14.657	0.295	-0.109	-0.029	2360.000
-1.494	0.287	-14.774	0.295	-0.129	-0.015	2360.000
-1.476	-0.566	-14.612	0.285	-0.129	-0.002	1400.000
-1.869	0.017	-16.306	0.312	-0.163	-0.038	1105.000
-1.751	-0.118	-17.784	0.339	-0.185	-0.023	1105.000
-2.878	-0.586	-18.982	0.337	-0.178	-0.018	629.000
-1.305	0.332	-19.233	0.351	-0.194	-0.035	394.000
-0.679	0.491	-20.266	0.365	-0.209	-0.031	285.000
1.640	2.827	-21.065	0.382	-0.286	-0.023	145.000
-5.353	0.004	-23.978	0.383	-0.209	-0.042	79.000
0.753	2.528	-20.541	0.383	-0.233	-0.015	79.000
-1.362	0.868	-22.073	0.376	-0.179	-0.036	79.000
-1.264	0.611	-22.014	0.375	-0.189	-0.023	79.000
-0.833	0.740	-22.001	0.378	-0.184	-0.015	79.000
-1.186	0.697	-21.472	0.374	-0.188	-0.030	79.000
-1.169	0.676	-22.135	0.377	-0.184	-0.016	79.000
-1.034	0.823	-21.550	0.376	-0.189	-0.021	79.000
-1.084	0.736	-21.914	0.376	-0.183	-0.024	79.000
-1.060	0.724	-21.709	0.376	-0.188	-0.020	79.000
-1.119	0.676	-21.823	0.376	-0.183	-0.023	79.000
-1.093	0.721	-21.725	0.376	-0.187	-0.019	79.000
-1.143	0.736	-21.820	0.376	-0.184	-0.021	79.000
-1.082	0.706	-21.667	0.375	-0.185	-0.020	79.000
-1.131	0.699	-21.804	0.375	-0.184	-0.022	79.000
-1.108	0.696	-21.656	0.375	-0.185	-0.020	79.000
-1.112	0.697	-21.809	0.376	-0.185	-0.021	79.000
-1.105	0.723	-21.742	0.375	-0.185	-0.021	79.000
-1.113	0.704	-21.696	0.377	-0.184	-0.021	79.000
-1.107	0.705	-21.762	0.375	-0.185	-0.021	79.000
-1.107	0.717	-21.750	0.376	-0.185	-0.021	79.000
-1.109	0.698	-21.767	0.375	-0.185	-0.021	79.000
-1.096	0.708	-21.764	0.376	-0.185	-0.021	79.000
-1.121	0.752	-21.791	0.377	-0.186	-0.020	79.000
-1.101	0.700	-21.764	0.375	-0.185	-0.021	79.000
-1.098	0.692	-21.677	0.375	-0.185	-0.021	79.000
-1.098	0.755	-21.747	0.376	-0.185	-0.020	79.000
-1.099	0.696	-21.763	0.376	-0.184	-0.020	79.000
-1.105	0.691	-21.736	0.375	-0.185	-0.021	79.000
-1.098	0.690	-21.712	0.376	-0.185	-0.021	79.000
-1.101	0.693	-21.704	0.376	-0.185	-0.021	79.000
-1.102	0.688	-21.688	0.375	-0.186	-0.021	79.000
-1.117	0.644	-21.755	0.375	-0.184	-0.021	79.000
-1.110	0.758	-21.744	0.376	-0.185	-0.020	79.000
-1.105	0.699	-21.568	0.375	-0.188	-0.021	79.000
-1.102	0.691	-21.690	0.375	-0.185	-0.021	79.000
-1.109	0.694	-21.699	0.375	-0.186	-0.021	79.000
-1.107	0.698	-21.631	0.376	-0.184	-0.021	79.000
-1.104	0.712	-21.733	0.375	-0.185	-0.020	79.000
-1.106	0.691	-21.839	0.376	-0.185	-0.021	79.000
-0.873	1.016	-22.989	0.382	-0.191	-0.023	0.000
3.676	1.401	-23.989	0.383	-0.038	0.038	23.000
4.718	1.495	-24.392	0.391	-0.044	0.042	90.000
1.551	0.321	-27.476	0.400	-0.034	0.060	156.000
5.339	2.833	-24.179	0.428	-0.021	-0.010	202.000
3.062	0.462	-27.269	0.416	-0.069	0.070	442.000
2.942	1.520	-24.613	0.444	-0.033	0.027	649.000
3.301	0.432	-26.239	0.438	-0.068	0.055	805.000
2.612	0.582	-25.219	0.445	-0.025	0.026	805.000
2.979	0.413	-26.497	0.456	-0.008	0.044	1391.000
2.937	0.238	-26.279	0.473	0.013	0.052	1569.000
3.491	0.333	-26.925	0.477	0.017	0.040	2064.000
3.792	0.574	-27.387	0.487	0.049	0.024	2394.000
3.928	0.011	-27.846	0.476	0.042	0.034	2865.000
2.497	-0.283	-26.879	0.481	0.056	0.064	3231.000
4.628	0.947	-27.690	0.495	0.108	0.036	3748.000
3.522	0.145	-28.955	0.493	0.123	0.040	4175.000
2.801	-0.098	-28.424	0.494	0.106	0.031	4695.000
4.958	0.702	-28.336	0.486	0.153	0.046	5131.000
2.549	0.153	-28.766	0.496	0.134	0.028	5488.000
3.327	0.780	-29.284	0.499	0.172	0.052	5935.000
1.783	0.238	-29.952	0.503	0.126	0.051	6125.000
2.007	0.292	-28.536	0.495	0.115	0.045	6610.000
1.270	0.659	-28.342	0.494	0.141	0.036	6687.000
1.816	-0.187	-28.418	0.487	0.144	0.040	7170.000
2.506	0.295	-28.130	0.482	0.167	0.049	7309.000
1.831	-0.015	-26.489	0.467	0.194	0.021	7476.000
1.911	-0.450	-25.440	0.457	0.174	0.034	7663.000
-0.006	-0.522	-25.523	0.456	0.185	0.032	7820.000
5.084	0.945	-26.673	0.455	0.122	0.080	7820.000
-0.789	-1.700	-25.830	0.455	0.204	0.017	7974.000
3.304	-0.051	-23.120	0.436	0.164	0.018	8000.000
0.979	-0.562	-23.158	0.439	0.158	0.039	8000.000
-3.620	-0.223	-25.334	0.456	-0.037	-0.045	7991.000
-4.018	0.067	-24.046	0.443	-0.082	-0.062	7935.000
-2.370	-0.597	-23.328	0.438	-0.081	-0.037	7837.000
-6.384	-0.852	-23.264	0.428	-0.015	-0.033	7747.000
-3.383	0.428	-22.826	0.431	-0.065	-0.043	7562.000
-3.298	-0.317	-23.691	0.432	-0.032	-0.030	7412.000
-3.530	-0.274	-24.072	0.431	-0.003	-0.025	7158.000
-1.758	0.030	-23.478	0.423	-0.041	-0.039	6976.000
-2.062	0.250	-22.601	0.415	-0.020	-0.039	6678.000
-1.161	-0.330	-23.728	0.412	-0.029	-0.024	6322.000
-2.073	0.373	-24.419	0.430	-0.067	-0.035	5924.000
-2.478	-0.451	-22.396	0.408	-0.052	-0.030	5691.000
-1.861	-0.192	-21.238	0.393	-0.074	-0.016	5223.000
-1.230	-0.176	-20.344	0.382	-0.095	-0.026	4879.000
-3.208	-0.872	-19.638	0.368	-0.098	-0.034	4296.000
-1.216	0.090	-18.871	0.356	-0.091	-0.033	3749.000
-2.156	0.108	-18.951	0.350	-0.129	-0.023	3314.000
-2.016	-0.266	-18.933	0.368	-0.152	-0.035	3116.000
-1.414	-0.884	-18.537	0.348	-0.110	-0.017	2547.000
-1.534	-0.431	-18.334	0.367	-0.142	-0.028	2028.000
-1.005	-0.265	-21.028	0.384	-0.152	-0.024	1727.000
-2.045	0.523	-20.993	0.395	-0.171	-0.042	1538.000
-2.100	-0.313	-19.890	0.389	-0.195	-0.034	1362.000
-2.407	-0.219	-19.862	0.382	-0.186	-0.020	1362.000
-3.262	0.157	-22.391	0.392	-0.222	-0.039	663.000
-0.752	1.066	-22.483	0.407	-0.252	-0.037	491.000
-2.114	1.254	-24.361	0.423	-0.245	-0.045	350.000
0.054	1.494	-23.396	0.423	-0.293	-0.018	350.000
-7.928	-0.725	-26.043	0.422	-0.185	-0.080	103.000
0.477	1.123	-23.196	0.426	-0.252	-0.014	24.000
-1.050	1.972	-28.342	0.440	-0.236	-0.054	6.000
-2.600	1.072	-25.709	0.433	-0.225	-0.031	2.000
4.753	1.672	-27.724	0.434	-0.056	0.039	29.000
5.024	0.773	-28.078	0.428	-0.041	0.058	104.000
2.864	1.337	-25.817	0.439	0.017	0.004	173.000
2.873	-0.471	-28.028	0.432	-0.032	0.074	202.000
2.567	1.584	-25.825	0.440	-0.034	0.023	461.000
2.399	0.792	-25.730	0.435	-0.087	0.052	665.000
1.524	0.421	-26.357	0.446	-0.042	0.037	846.000
3.013	0.932	-26.320	0.455	-0.016	0.039	1138.000
3.077	0.442	-26.445	0.454	0.004	0.038	1405.000
3.664	0.067	-26.247	0.467	0.001	0.053	1653.000
3.475	0.249	-26.089	0.475	0.026	0.054	2059.000
3.920	0.131	-27.753	0.481	0.056	0.022	2260.000
3.626	-0.661	-27.724	0.476	0.066	0.053	2867.000
3.592	0.170	-27.752	0.500	0.037	0.054	2980.000
3.255	-0.310	-29.203	0.500	0.098	0.028	3613.000
4.475	0.303	-29.240	0.511	0.124	0.064	4250.000
2.386	0.211	-31.320	0.521	0.081	0.079	4596.000
4.317	0.238	-31.484	0.522	0.159	0.036	4596.000
3.047	0.495	-31.878	0.533	0.130	0.066	4596.000
3.930	0.285	-31.078	0.524	0.175	0.047	5928.000
3.746	0.651	-30.999	0.526	0.164	0.058	6300.000
2.579	0.804	-30.693	0.518	0.173	0.036	6534.000
2.719	0.127	-30.044	0.519	0.153	0.044	6769.000
1.886	0.396	-30.394	0.518	0.181	0.047	7169.000
2.107	0.040	-30.181	0.504	0.199	0.046	7346.000
2.927	0.217	-27.988	0.489	0.185	0.038	7491.000
1.923	0.042	-25.282	0.463	0.171	0.037	7698.000
3.496	-0.062	-23.584	0.460	0.165	0.055	7806.000
0.388	-1.243	-27.308	0.451	0.184	0.050	7915.000
-0.085	1.325	-25.065	0.458	0.126	-0.002	7964.000
2.152	-0.786	-24.368	0.429	0.161	0.034	8000.000
-0.229	-0.322	-21.521	0.428	0.108	-0.003	7999.000
-3.436	-0.561	-23.467	0.434	-0.020	-0.029	7977.000
-1.762	-0.549	-23.013	0.415	0.025	-0.013	7940.000
-1.252	0.013	-22.279	0.405	-0.012	-0.001	7788.000
-2.553	-0.209	-21.356	0.402	-0.001	-0.052	7651.000
-3.901	-0.337	-23.053	0.400	-0.014	-0.005	7515.000
-3.517	0.046	-21.168	0.393	-0.037	-0.046	7287.000
-1.663	-0.005	-20.908	0.388	-0.035	-0.028	7089.000
-1.906	0.411	-23.119	0.404	-0.030	-0.020	6941.000
-1.400	-0.291	-22.469	0.403	-0.020	-0.045	6698.000
-1.717	-0.148	-22.345	0.402	-0.026	-0.026	6210.000
-1.524	-0.171	-22.152	0.403	-0.034	-0.023	5882.000
-1.193	-0.195	-21.024	0.378	-0.055	-0.052	5882.000
-1.576	-0.479	-19.799	0.363	-0.056	-0.023	5110.000
-2.059	-0.224	-19.501	0.367	-0.070	-0.028	4702.000
-1.230	-0.777	-19.885	0.357	-0.079	-0.036	4247.000
-0.799	0.595	-20.547	0.372	-0.109	-0.027	3652.000
-1.463	-0.260	-21.043	0.371	-0.135	-0.040	3245.000
-0.274	-0.418	-19.299	0.359	-0.110	-0.024	2834.000
-2.118	-0.582	-19.425	0.378	-0.158	-0.027	2285.000
-0.260	-0.164	-20.809	0.379	-0.172	-0.026	1992.000
-2.744	-0.622	-19.565	0.381	-0.171	-0.034	1638.000
-1.275	0.417	-21.081	0.395	-0.168	-0.020	1454.000
-2.139	0.257	-21.837	0.397	-0.191	-0.042	1079.000
-2.273	0.157	-21.125	0.404	-0.219	-0.035	817.000
-1.566	0.623	-22.482	0.411	-0.229	-0.027	610.000
-3.226	0.595	-22.788	0.408	-0.223	-0.037	405.000
-2.398	-0.647	-24.061	0.419	-0.241	-0.036	286.000
-7.904	0.438	-26.929	0.431	-0.211	-0.075	153.000
1.213	2.559	-23.981	0.433	-0.385	-0.023	69.000
-4.972	0.018	-25.104	0.429	-0.215	-0.059	17.000
-1.373	0.892	-24.696	0.426	-0.202	-0.020	0.000
1.511	1.731	-26.708	0.433	-0.126	0.006	2.000
3.526	1.500	-27.035	0.432	-0.025	0.052	41.000
0.795	1.418	-27.045	0.437	-0.009	0.021	127.000
6.563	3.706	-25.707	0.453	-0.135	0.010	265.000
0.088	2.026	-27.242	0.446	-0.097	0.053	373.000
2.662	1.802	-24.718	0.440	-0.071	0.032	482.000
2.693	1.048	-27.701	0.451	-0.067	0.052	482.000
3.052	1.173	-27.632	0.465	-0.021	0.038	1002.000
2.825	0.680	-27.561	0.469	-0.025	0.046	1231.000
2.971	0.566	-27.220	0.479	-0.003	0.054	1579.000
3.005	0.596	-28.611	0.493	-0.012	0.039	1759.000
3.188	0.208	-28.782	0.508	0.026	0.053	1759.000
3.099	0.316	-29.127	0.507	0.037	0.077	2698.000
2.961	0.036	-27.678	0.501	0.087	0.025	3051.000
3.253	0.621	-30.306	0.524	0.039	0.062	3582.000
1.789	1.164	-31.579	0.534	0.067	0.053	3997.000
4.682	0.242	-30.747	0.530	0.118	0.049	4535.000
2.012	1.099	-31.378	0.524	0.054	0.070	4811.000
3.707	0.497	-31.251	0.530	0.152	0.040	4811.000
2.948	0.462	-32.045	0.538	0.164	0.060	5769.000
4.187	1.009	-31.925	0.529	0.221	0.044	6156.000
4.072	0.387	-29.470	0.506	0.203	0.046	6443.000
4.640	0.571	-30.214	0.520	0.222	0.036	6752.000
4.477	0.169	-29.910	0.509	0.225	0.051	7064.000
3.911	0.611	-30.942	0.523	0.219	0.053	7279.000
3.554	0.435	-28.840	0.503	0.242	0.038	7426.000
2.570	0.160	-28.013	0.485	0.155	0.047	7658.000
2.251	0.501	-25.254	0.465	0.175	0.017	7658.000
4.821	0.020	-27.535	0.460	0.126	0.090	7658.000
2.069	-0.395	-25.156	0.462	0.238	0.030	7952.000
3.449	0.452	-26.072	0.458	0.123	0.033	7989.000
1.159	-0.561	-24.905	0.447	0.152	0.024	8000.000
-2.614	-0.531	-24.709	0.457	-0.001	-0.048	7992.000
-4.611	0.269	-24.044	0.441	-0.020	-0.003	7933.000
-4.390	0.369	-22.853	0.433	-0.044	-0.046	7859.000
-0.797	0.501	-22.505	0.424	-0.058	-0.045	7736.000
-4.041	-0.719	-23.045	0.408	-0.042	0.010	7560.000
-2.087	0.378	-21.750	0.411	-0.052	-0.063	7362.000
-1.195	-0.146	-22.059	0.409	-0.047	-0.033	7241.000
-1.823	0.322	-23.146	0.412	-0.013	-0.019	6941.000
-1.017	0.124	-23.342	0.412	-0.016	-0.048	6681.000
-0.207	0.330	-24.472	0.423	0.005	-0.035	6349.000
-1.129	0.385	-24.598	0.423	-0.024	-0.038	5986.000
-0.916	-0.045	-22.237	0.405	-0.035	-0.026	5762.000
-1.312	-0.105	-20.990	0.384	-0.063	-0.036	5762.000
-2.474	-0.029	-22.009	0.387	-0.073	-0.054	4824.000
-1.308	0.420	-20.576	0.378	-0.086	-0.021	4552.000
-0.608	0.074	-19.142	0.365	-0.071	-0.041	3826.000
-2.185	-0.597	-19.807	0.362	-0.123	-0.036	3554.000
-0.145	0.232	-18.717	0.359	-0.108	-0.032	3554.000
-0.486	-0.099	-18.703	0.358	-0.128	-0.039	2564.000
-1.688	-0.356	-19.285	0.365	-0.128	-0.026	2236.000
-1.274	-0.149	-19.685	0.383	-0.160	-0.039	1888.000
-1.882	-0.554	-20.581	0.385	-0.186	-0.028	1443.000
-1.659	0.058	-21.470	0.411	-0.188	-0.033	1191.000
-2.296	0.037	-22.434	0.407	-0.223	-0.037	979.000
-1.680	0.471	-22.356	0.409	-0.238	-0.030	677.000
-4.376	0.495	-24.641	0.429	-0.220	-0.054	495.000
-2.769	0.377	-25.158	0.426	-0.246	-0.039	326.000
-4.472	0.788	-26.188	0.443	-0.232	-0.048	202.000
2.564	1.962	-24.732	0.446	-0.375	0.006	122.000
-3.738	1.336	-29.030	0.452	-0.322	-0.087	39.000
-0.630	0.979	-26.267	0.444	-0.234	-0.030	9.000
-1.351	1.790	-27.002	0.450	-0.266	-0.030	0.000
-1.679	1.265	-27.666	0.446	-0.229	-0.036	0.000
-1.534	1.330	-26.938	0.447	-0.240	-0.025	0.000
-1.718	1.413	-27.489	0.446	-0.240	-0.038	0.000
-0.703	1.328	-26.946	0.445	-0.208	-0.017	3.000
3.800	1.516	-28.379	0.444	-0.021	0.053	37.000
3.007	1.110	-27.763	0.446	-0.092	0.056	80.000
7.297	2.743	-27.314	0.454	-0.141	0.048	186.000
-1.715	1.095	-27.766	0.446	-0.041	0.009	333.000
3.464	1.950	-26.508	0.443	-0.089	0.052	458.000
2.487	0.488	-27.188	0.438	-0.029	0.033	571.000
2.976	0.930	-24.030	0.437	-0.011	0.032	921.000
2.355	0.150	-25.382	0.444	-0.041	0.046	981.000
2.900	0.618	-24.778	0.447	-0.026	0.034	1538.000
3.006	0.316	-26.176	0.464	-0.004	0.066	1783.000
2.902	0.663	-27.399	0.479	-0.003	0.049	2044.000
2.212	-0.109	-26.257	0.476	0.025	0.031	2593.000
3.644	0.010	-26.782	0.489	0.041	0.049	2921.000
4.224	0.305	-30.176	0.505	0.069	0.057	3193.000
2.007	0.058	-31.171	0.518	0.051	0.049	3771.000
3.665	0.644	-30.261	0.527	0.106	0.045	4409.000
3.535	0.053	-30.785	0.529	0.113	0.074	4596.000
2.848	0.074	-31.480	0.527	0.122	0.029	5237.000
3.384	0.521	-31.806	0.530	0.145	0.081	5581.000
3.211	0.909	-32.017	0.531	0.165	0.038	5828.000
4.071	0.402	-32.299	0.534	0.213	0.056	5828.000
4.647	1.281	-32.541	0.543	0.236	0.064	6595.000
3.777	0.848	-30.504	0.521	0.239	0.034	6914.000
4.360	0.327	-30.712	0.527	0.210	0.054	7176.000
4.258	0.542	-30.030	0.512	0.217	0.039	7410.000
2.560	-0.118	-30.622	0.512	0.186	0.047	7591.000
3.049	0.337	-27.894	0.488	0.203	0.035	7710.000
-0.087	0.531	-27.660	0.466	0.208	0.048	7784.000
4.476	0.580	-22.642	0.468	0.211	0.019	7909.000
3.469	-0.261	-25.323	0.438	0.127	0.023	7971.000
0.963	-0.599	-21.707	0.429	0.153	0.000	8000.000
0.457	-0.983	-22.820	0.434	0.056	-0.025	8000.000
-2.782	-0.834	-20.994	0.425	-0.052	-0.024	7950.000
-5.609	-0.577	-22.194	0.416	-0.044	-0.055	7883.000
-7.021	-1.270	-21.163	0.401	0.030	-0.043	7748.000
-0.729	-0.395	-22.446	0.408	-0.056	-0.022	7613.000
-2.361	0.093	-23.294	0.411	0.012	-0.035	7481.000
-1.338	-0.068	-21.485	0.393	0.022	-0.024	7225.000
-1.808	-0.376	-22.314	0.398	-0.017	-0.041	7035.000
-2.371	0.190	-21.311	0.405	-0.030	-0.033	6781.000
-2.645	0.443	-24.214	0.416	-0.067	-0.029	6440.000
-2.720	-0.314	-23.132	0.410	-0.062	-0.028	6361.000
-3.331	-0.224	-20.769	0.399	-0.102	-0.033	5911.000
-3.061	0.476	-21.859	0.405	-0.099	-0.022	5402.000
-2.058	-0.432	-20.380	0.388	-0.086	-0.051	5211.000
-2.797	-0.251	-21.299	0.388	-0.133	-0.025	4604.000
-3.220	0.053	-20.887	0.377	-0.122	-0.035	4123.000
-0.666	-0.798	-19.113	0.357	-0.091	-0.034	3577.000
-3.358	0.274	-19.195	0.380	-0.156	-0.034	3042.000
-2.553	-0.220	-19.634	0.374	-0.138	-0.036	2691.000
-1.711	0.115	-19.017	0.369	-0.152	-0.038	2360.000
-1.350	-0.623	-19.509	0.377	-0.136	0.007	2360.000
-0.967	-0.909	-19.153	0.360	-0.138	-0.032	1552.000
-1.826	-0.084	-20.810	0.385	-0.173	-0.029	1242.000
-1.170	-0.236	-19.900	0.376	-0.171	-0.016	1005.000
-1.888	-0.065	-21.506	0.389	-0.197	-0.043	746.000
-1.931	0.673	-21.529	0.389	-0.208	-0.015	531.000
-1.464	0.658	-22.774	0.407	-0.220	-0.045	458.000
-2.208	0.063	-24.412	0.415	-0.223	-0.042	262.000
2.234	3.417	-26.417	0.439	-0.306	-0.046	137.000
-2.068	-0.223	-26.675	0.427	-0.211	-0.030	54.000
0.510	1.100	-27.008	0.437	-0.244	-0.048	9.000
-2.941	1.485	-27.309	0.452	-0.247	-0.023	0.000
-0.654	1.539	-28.174	0.450	-0.210	-0.044	0.000
3.949	1.726	-28.802	0.447	-0.028	0.051	32.000
3.028	1.336	-28.505	0.456	-0.032	0.053	101.000
-0.587	-0.488	-25.462	0.438	0.035	-0.004	152.000
3.422	0.825	-26.668	0.443	-0.170	0.075	353.000
1.456	1.285	-27.028	0.446	-0.067	0.030	440.000
2.979	1.282	-26.764	0.445	-0.077	0.046	622.000
1.953	0.507	-26.395	0.444	-0.018	0.041	833.000
2.653	0.589	-23.872	0.431	-0.027	0.038	1180.000
2.481	-0.305	-23.876	0.429	-0.001	0.042	1493.000
2.500	0.236	-24.334	0.443	0.007	0.035	1801.000
2.854	-0.105	-24.840	0.448	0.013	0.045	2121.000
3.560	0.339	-26.570	0.471	0.015	0.055	2449.000
3.180	0.552	-27.836	0.490	0.066	0.034	2926.000
3.863	0.357	-29.069	0.504	0.078	0.058	3427.000
2.265	0.992	-30.212	0.523	0.037	0.039	3896.000
3.643	0.280	-30.382	0.519	0.110	0.048	4366.000
2.014	0.582	-31.100	0.522	0.088	0.017	4811.000
2.740	0.794	-31.741	0.539	0.135	0.031	5296.000
3.629	0.817	-32.370	0.540	0.142	0.059	5636.000
4.242	0.864	-32.270	0.536	0.169	0.037	5919.000
4.541	0.715	-30.784	0.518	0.217	0.050	6189.000
4.044	0.559	-31.655	0.532	0.230	0.052	6393.000
4.969	0.694	-32.656	0.539	0.240	0.044	6936.000
3.861	0.438	-31.994	0.537	0.251	0.048	7144.000
3.240	0.827	-32.162	0.538	0.256	0.043	7387.000
2.973	0.384	-29.488	0.508	0.195	0.040	7441.000
1.860	-0.373	-29.102	0.504	0.201	0.039	7441.000
6.759	0.543	-30.314	0.511	0.143	0.046	7836.000
-0.720	-0.914	-28.601	0.494	0.254	0.038	7932.000
3.747	0.110	-27.798	0.479	0.157	0.011	7986.000
1.766	-0.470	-26.944	0.472	0.156	0.056	7997.000
2.100	-0.285	-25.110	0.466	0.167	0.006	7999.000
-2.170	-0.802	-22.857	0.456	-0.051	-0.043	7965.000
-4.409	-0.622	-22.210	0.437	-0.050	-0.043	7916.000
-4.515	-0.260	-20.938	0.411	0.017	-0.037	7860.000
0.344	1.021	-22.682	0.414	-0.056	-0.019	7685.000
-3.485	0.319	-22.089	0.410	0.011	-0.039	7560.000
-0.380	-0.241	-21.685	0.396	0.028	-0.018	7417.000
-0.183	0.081	-22.050	0.395	-0.016	-0.043	7141.000
-2.008	-0.301	-22.068	0.403	-0.008	-0.026	6880.000
-1.990	0.143	-23.190	0.412	-0.058	-0.027	6597.000
-4.223	0.669	-23.351	0.411	-0.096	-0.042	6340.000
-3.312	-0.322	-22.182	0.416	-0.073	-0.035	5961.000
-3.823	-0.258	-22.295	0.410	-0.120	-0.018	5616.000
-3.309	-0.242	-22.499	0.404	-0.093	-0.036	5193.000
-2.546	-0.048	-21.027	0.392	-0.110	-0.049	4778.000
-2.417	0.197	-21.875	0.400	-0.133	-0.018	4347.000
-2.631	0.008	-20.571	0.382	-0.131	-0.040	4347.000
-1.488	-0.345	-19.653	0.360	-0.116	-0.031	3278.000
-4.051	0.171	-19.062	0.374	-0.167	-0.031	2947.000
-1.286	-0.266	-19.673	0.377	-0.134	-0.035	2518.000
-3.476	0.515	-21.603	0.399	-0.185	-0.042	2062.000
-0.248	0.146	-20.236	0.390	-0.146	-0.042	1859.000
-1.569	0.227	-19.889	0.388	-0.165	-0.041	1446.000
-1.266	-0.447	-20.914	0.392	-0.174	-0.029	1102.000
-1.137	0.181	-21.590	0.404	-0.194	-0.024	952.000
-1.151	0.729	-21.461	0.397	-0.205	-0.033	668.000
-1.754	0.166	-22.887	0.411	-0.195	-0.041	464.000
-1.288	1.271	-24.946	0.430	-0.253	-0.039	325.000
-3.916	0.986	-25.709	0.432	-0.213	-0.068	250.000
2.010	2.545	-22.655	0.444	-0.321	-0.029	89.000
-0.852	1.533	-28.714	0.442	-0.158	-0.039	29.000
-2.985	0.711	-26.305	0.441	-0.243	-0.012	0.000
2.234	1.435	-27.834	0.451	-0.138	0.007	9.000
3.305	1.146	-27.777	0.436	-0.012	0.031	75.000
6.293	1.665	-27.678	0.436	-0.046	0.075	160.000
-2.154	-0.967	-29.511	0.425	-0.035	0.065	263.000
3.017	1.407	-26.157	0.445	-0.093	0.024	424.000
0.666	0.257	-26.585	0.439	-0.082	0.043	557.000
1.832	0.862	-26.110	0.449	-0.046	0.024	758.000
2.784	0.305	-26.083	0.437	-0.043	0.056	1055.000
2.841	-0.092	-23.082	0.428	-0.011	0.028	1294.000
2.709	-0.063	-24.978	0.443	0.006	0.047	1294.000
3.683	0.163	-26.028	0.459	0.016	0.051	1294.000
3.158	0.513	-26.370	0.474	0.033	0.029	2289.000
3.382	0.680	-27.340	0.490	0.058	0.038	2523.000
3.901	0.203	-29.236	0.494	0.058	0.049	3101.000
2.006	0.744	-29.041	0.512	0.042	0.049	3547.000
3.342	0.362	-30.172	0.516	0.096	0.036	3547.000
3.219	-0.288	-30.644	0.527	0.079	0.062	4587.000
1.604	-0.708	-31.287	0.522	0.105	0.068	4991.000
3.821	0.219	-30.945	0.526	0.133	0.051	5116.000
3.276	0.395	-32.363	0.540	0.152	0.053	5836.000
4.021	0.525	-32.946	0.540	0.185	0.052	6015.000
3.300	0.306	-32.435	0.532	0.169	0.039	6467.000
3.649	0.306	-31.911	0.529	0.191	0.042	6790.000
3.564	0.707	-30.222	0.522	0.208	0.050	7078.000
3.533	-0.058	-30.576	0.520	0.212	0.038	7265.000
3.307	-0.234	-29.203	0.494	0.199	0.058	7460.000
1.897	0.219	-26.331	0.486	0.189	0.028	7658.000
2.592	-0.820	-27.826	0.477	0.173	0.044	7764.000
2.460	-0.741	-24.302	0.456	0.279	-0.013	7857.000
4.524	-0.423	-25.470	0.447	0.086	0.050	7926.000
-0.163	-0.738	-23.236	0.441	0.198	0.037	7992.000
0.703	0.147	-23.173	0.427	0.120	0.025	8000.000
-3.461	-0.585	-23.620	0.444	-0.039	-0.050	7984.000
-4.066	-0.096	-21.724	0.427	-0.073	-0.058	7932.000
-0.558	-0.091	-21.753	0.419	-0.090	-0.019	7874.000
-4.970	-0.620	-24.268	0.420	-0.012	-0.040	7724.000
-1.737	-0.143	-21.969	0.407	-0.060	-0.045	7625.000
-1.749	0.089	-22.821	0.417	0.000	-0.015	7428.000
-1.951	0.382	-24.526	0.431	0.011	-0.036	7251.000
-1.311	-0.015	-24.495	0.422	-0.025	-0.037	6917.000
-2.088	-0.319	-22.248	0.409	-0.031	-0.021	6760.000
-1.669	-0.081	-21.697	0.400	-0.032	-0.029	6760.000
-2.572	0.305	-23.508	0.412	-0.065	-0.035	5890.000
-2.197	-0.091	-22.168	0.409	-0.066	-0.039	5626.000
-1.752	-0.109	-22.023	0.400	-0.103	-0.031	5105.000
-3.032	-0.078	-21.074	0.385	-0.091	-0.015	4725.000
-2.875	-0.572	-19.882	0.386	-0.115	-0.032	4207.000
-2.822	-0.773	-21.503	0.386	-0.123	-0.018	3935.000
-2.082	0.521	-20.134	0.377	-0.127	-0.034	3373.000
-3.292	-0.815	-19.279	0.364	-0.151	-0.031	3245.000
-1.109	-0.148	-19.431	0.376	-0.105	-0.022	2443.000
-1.538	-0.607	-18.937	0.362	-0.146	-0.015	2443.000
-0.659	-0.713	-20.073	0.379	-0.122	-0.033	1725.000
-2.094	0.586	-20.354	0.388	-0.168	-0.043	1378.000
-1.636	-0.085	-21.827	0.394	-0.194	-0.023	1214.000
-2.900	0.208	-20.696	0.404	-0.209	-0.036	933.000
-3.121	-0.107	-22.790	0.401	-0.226	-0.024	622.000
-1.222	0.457	-21.141	0.400	-0.246	-0.029	622.000
-1.991	-0.029	-20.664	0.397	-0.224	-0.025	622.000
-1.087	0.922	-22.463	0.393	-0.267	-0.013	212.000
-2.800	1.494	-25.064	0.432	-0.240	-0.100	105.000
-3.703	-0.458	-25.640	0.423	-0.154	-0.016	34.000
-0.771	1.917	-27.796	0.441	-0.247	-0.039	1.000
0.470	1.668	-27.738	0.452	-0.171	-0.000	2.000
5.291	1.846	-28.467	0.451	-0.065	0.034	57.000
3.396	1.600	-29.538	0.456	0.036	0.017	114.000
6.820	2.417	-28.519	0.464	-0.064	0.018	211.000
-0.141	-0.359	-30.181	0.457	-0.007	0.046	349.000
3.695	1.937	-27.940	0.466	-0.119	0.036	530.000
2.153	0.875	-27.062	0.456	-0.084	0.047	706.000
2.527	0.988	-26.756	0.457	-0.035	0.030	950.000
3.193	0.690	-26.671	0.448	-0.024	0.039	1174.000
3.096	0.393	-25.702	0.458	0.002	0.037	1430.000
3.395	0.469	-24.520	0.449	0.017	0.042	1856.000
3.301	0.544	-25.061	0.457	0.038	0.038	2086.000
3.426	0.241	-26.389	0.462	0.045	0.048	2588.000
3.421	0.541	-26.031	0.472	0.065	0.030	3085.000
2.726	-0.049	-26.720	0.476	0.032	0.049	3603.000
4.606	-0.271	-28.157	0.487	0.111	0.050	3941.000
2.318	0.987	-30.331	0.514	0.079	0.044	4440.000
3.752	0.179	-30.999	0.518	0.135	0.021	4906.000
2.345	0.868	-31.877	0.537	0.132	0.072	5379.000
3.574	0.419	-31.362	0.528	0.158	0.026	5760.000
3.332	0.256	-32.458	0.539	0.165	0.046	6063.000
1.935	1.246	-32.120	0.543	0.148	0.071	6453.000
1.980	0.349	-30.561	0.523	0.153	0.032	6782.000
1.543	0.336	-30.937	0.528	0.167	0.034	7019.000
2.734	0.472	-29.935	0.512	0.153	0.046	7155.000
3.370	0.207	-28.826	0.502	0.201	0.030	7312.000
3.080	0.051	-29.851	0.503	0.207	0.055	7645.000
2.482	0.239	-29.265	0.511	0.203	0.056	7771.000
3.493	1.941	-29.039	0.498	0.167	0.081	7833.000
-0.231	-1.130	-25.883	0.481	0.201	0.009	7919.000
3.039	0.329	-26.597	0.463	0.149	0.029	7989.000
0.965	-0.662	-24.559	0.453	0.180	0.041	8000.000
-3.219	-0.317	-25.010	0.469	-0.047	-0.041	7978.000
-3.738	0.097	-23.041	0.427	-0.078	-0.074	7931.000
-1.023	-0.052	-21.415	0.416	-0.084	-0.025	7892.000
-5.869	-0.991	-22.588	0.411	-0.018	-0.026	7892.000
-1.441	-0.036	-21.862	0.400	-0.070	-0.055	7641.000
-3.026	0.035	-21.114	0.391	-0.002	-0.015	7337.000
-2.221	-0.383	-21.221	0.384	0.018	-0.026	7211.000
-1.457	0.072	-22.452	0.400	-0.021	-0.046	7003.000
-1.603	0.073	-22.447	0.406	-0.010	-0.023	6623.000
-2.106	0.378	-24.284	0.421	-0.040	-0.031	6311.000
-1.768	-0.061	-22.190	0.409	-0.055	-0.038	6311.000
-2.083	-0.251	-20.769	0.390	-0.054	-0.045	5565.000
-1.646	0.350	-21.245	0.392	-0.083	-0.021	5146.000
-2.529	-0.014	-20.217	0.378	-0.097	-0.013	4777.000
-2.483	-0.074	-20.380	0.381	-0.101	-0.041	4399.000
-2.297	-0.578	-19.141	0.359	-0.094	-0.017	3992.000
-1.798	0.152	-18.262	0.356	-0.122	-0.042	3992.000
-2.637	-0.271	-18.805	0.354	-0.142	-0.023	2893.000
-0.990	-0.486	-18.521	0.363	-0.111	-0.024	2595.000
-0.777	0.021	-19.902	0.376	-0.150	-0.037	2070.000
-1.013	0.240	-20.785	0.388	-0.117	-0.029	1668.000
-1.484	-0.419	-20.725	0.393	-0.175	-0.029	1459.000
-2.153	0.184	-21.971	0.401	-0.185	-0.028	1118.000
-2.683	-0.037	-20.963	0.402	-0.211	-0.038	928.000
-2.724	-0.089	-21.828	0.411	-0.219	-0.029	644.000
-1.550	0.926	-23.675	0.418	-0.266	-0.028	492.000
-2.157	0.859	-24.982	0.424	-0.252	-0.032	297.000
-0.151	0.908	-23.641	0.428	-0.294	-0.013	165.000
-2.970	1.074	-26.764	0.439	-0.249	-0.090	99.000
-2.670	-0.247	-24.431	0.427	-0.175	-0.017	31.000
-1.185	1.603	-26.815	0.443	-0.238	-0.043	0.000
-1.627	1.128	-26.728	0.437	-0.212	-0.012	0.000
3.561	1.206	-26.749	0.432	-0.028	0.039	34.000
2.651	0.909	-26.427	0.438	-0.100	0.051	106.000
7.149	2.428	-27.234	0.448	-0.120	0.044	197.000
-1.818	0.711	-28.378	0.443	-0.026	0.021	338.000
4.649	2.088	-26.655	0.444	-0.080	0.037	412.000
2.889	0.736	-27.169	0.443	-0.018	0.036	613.000
3.388	0.885	-25.699	0.449	-0.030	0.038	826.000
2.724	0.284	-27.238	0.456	-0.038	0.043	1055.000
2.791	0.981	-26.373	0.468	-0.024	0.043	1431.000
2.316	0.599	-27.459	0.476	-0.006	0.028	1831.000
2.333	0.546	-27.393	0.480	-0.005	0.040	2199.000
2.262	0.100	-27.686	0.486	0.029	0.026	2539.000
3.309	0.083	-28.149	0.491	0.046	0.051	2785.000
4.572	0.701	-29.390	0.502	0.071	0.049	3084.000
1.940	0.338	-30.738	0.515	0.046	0.057	3084.000
3.714	0.882	-30.912	0.529	0.112	0.052	4275.000
2.326	0.110	-31.079	0.526	0.119	0.035	4817.000
2.531	0.307	-30.123	0.524	0.092	0.044	5245.000
2.295	1.139	-31.904	0.541	0.131	0.073	5648.000
3.036	1.378	-32.540	0.539	0.161	0.035	5964.000
3.896	0.407	-31.191	0.521	0.202	0.048	6383.000
4.191	0.769	-30.429	0.519	0.218	0.057	6628.000
3.974	0.189	-28.783	0.498	0.220	0.036	6957.000
3.838	-0.234	-27.058	0.491	0.204	0.050	7209.000
4.027	0.867	-27.718	0.499	0.198	0.037	7397.000
2.333	-0.012	-27.678	0.478	0.157	0.041	7458.000
2.606	-0.008	-24.682	0.457	0.178	0.022	7730.000
-0.361	0.371	-26.065	0.446	0.198	0.048	7855.000
3.890	0.906	-21.175	0.444	0.213	0.009	7926.000
3.826	-0.479	-24.319	0.421	0.107	0.020	7973.000
1.293	-0.344	-22.353	0.427	0.157	0.003	8000.000
2.542	-0.749	-22.958	0.424	0.139	0.004	7997.000
-1.738	-0.602	-21.952	0.439	-0.060	-0.039	7980.000
-3.538	-0.176	-23.534	0.440	-0.057	-0.043	7908.000
-5.040	-0.297	-23.781	0.442	0.039	-0.035	7805.000
-0.949	0.293	-24.714	0.449	-0.029	-0.029	7697.000
-3.252	1.159	-26.273	0.453	0.014	-0.043	7534.000
-0.862	-0.072	-24.525	0.446	0.030	-0.028	7477.000
-0.821	0.193	-25.960	0.441	-0.007	-0.046	7141.000
-2.223	0.207	-24.694	0.432	-0.020	-0.034	6879.000
-2.020	0.196	-23.167	0.418	-0.041	-0.027	6647.000
-2.341	-0.190	-23.063	0.418	-0.047	-0.037	6261.000
-3.445	0.167	-22.838	0.417	-0.085	-0.032	6189.000
-2.397	-0.239	-21.296	0.395	-0.090	-0.025	6189.000
-2.448	-0.542	-20.475	0.380	-0.084	-0.015	5252.000
-2.267	-0.346	-20.281	0.374	-0.082	-0.054	4918.000
-2.840	0.266	-19.726	0.374	-0.124	-0.013	4215.000
-2.172	-0.125	-19.428	0.371	-0.144	-0.047	3835.000
-1.278	-0.417	-19.493	0.362	-0.114	-0.024	3271.000
-3.336	0.414	-19.015	0.367	-0.162	-0.028	2952.000
-1.119	-0.153	-19.976	0.372	-0.123	-0.046	2402.000
-2.802	-0.532	-18.826	0.368	-0.143	-0.038	2181.000
0.192	0.264	-19.099	0.378	-0.123	-0.039	1881.000
-1.270	-0.733	-20.333	0.369	-0.144	-0.020	1398.000
-0.878	0.149	-19.755	0.385	-0.152	-0.029	1068.000
-1.627	-0.299	-22.748	0.408	-0.197	-0.030	835.000
-1.619	0.721	-22.960	0.413	-0.229	-0.035	702.000
-2.075	0.840	-24.705	0.433	-0.211	-0.045	440.000
-1.913	1.335	-24.946	0.438	-0.248	-0.045	288.000
-1.677	1.899	-28.095	0.458	-0.249	-0.072	225.000
-3.265	0.214	-26.388	0.452	-0.232	-0.044	82.000
2.449	0.912	-29.111	0.452	-0.226	-0.023	32.000
-3.624	1.151	-27.950	0.458	-0.252	-0.013	7.000
-0.228	1.153	-26.549	0.445	-0.228	-0.048	0.000
1.006	0.977	-26.160	0.444	-0.137	-0.007	8.000
3.183	1.424	-27.547	0.442	-0.016	0.037	63.000
6.396	1.568	-27.358	0.434	-0.047	0.065	146.000
-2.196	-0.774	-28.945	0.420	-0.032	0.065	261.000
3.378	1.080	-23.662	0.429	-0.075	0.014	369.000
0.784	0.012	-24.867	0.418	-0.084	0.040	369.000
1.579	0.771	-24.386	0.430	-0.046	0.023	784.000
2.483	0.331	-24.165	0.415	-0.038	0.050	971.000
2.128	0.011	-21.478	0.410	-0.033	0.032	1339.000
2.166	-0.004	-23.773	0.429	-0.016	0.037	1623.000
3.361	0.397	-25.046	0.447	0.018	0.033	1873.000
3.126	0.175	-26.228	0.463	0.037	0.037	2264.000
3.393	0.783	-27.484	0.486	0.061	0.026	2683.000
4.583	-0.013	-29.794	0.499	0.055	0.046	3089.000
2.592	0.805	-29.716	0.520	0.053	0.059	3439.000
3.396	0.590	-31.214	0.532	0.093	0.041	3439.000
4.088	0.835	-31.998	0.537	0.083	0.047	4418.000
0.599	0.535	-33.351	0.548	0.112	0.034	4830.000
3.380	1.070	-32.669	0.550	0.159	0.063	5410.000
3.219	0.860	-32.439	0.538	0.166	0.044	5755.000
4.551	0.704	-32.246	0.535	0.177	0.048	6154.000
4.044	0.661	-31.931	0.537	0.179	0.048	6403.000
3.906	0.441	-33.561	0.544	0.197	0.037	6797.000
3.412	0.487	-30.490	0.519	0.190	0.048	7013.000
3.761	0.375	-30.774	0.527	0.215	0.040	7232.000
3.022	-0.393	-29.041	0.494	0.202	0.037	7389.000
2.156	0.495	-27.294	0.489	0.193	0.032	7615.000
2.314	-0.962	-26.204	0.462	0.172	0.032	7745.000
2.722	-0.681	-22.031	0.445	0.264	-0.015	7872.000
3.968	-0.175	-25.489	0.436	0.080	0.053	7954.000
-0.263	-0.803	-22.748	0.434	0.181	0.035	7991.000
0.844	0.073	-22.841	0.422	0.126	0.024	7991.000
2.137	-0.223	-23.284	0.426	0.147	0.017	7991.000
-0.752	-0.616	-22.120	0.425	0.041	-0.017	7987.000
-1.068	-0.582	-20.952	0.416	0.005	-0.030	7951.000
0.377	-0.600	-23.468	0.432	-0.008	-0.015	7858.000
2.323	0.695	-24.112	0.441	-0.050	-0.023	7858.000
-2.281	0.593	-23.873	0.435	0.054	-0.038	7858.000
-0.853	-0.151	-23.975	0.433	0.001	-0.022	7521.000
-0.849	0.049	-24.936	0.428	0.007	-0.046	7228.000
-1.804	0.590	-25.978	0.453	-0.023	-0.024	7007.000
-2.933	0.414	-26.164	0.443	-0.054	-0.032	6776.000
-2.456	0.135	-23.851	0.434	-0.073	-0.042	6397.000
-2.670	0.084	-23.288	0.433	-0.076	-0.027	6101.000
-2.784	-0.170	-23.577	0.427	-0.079	-0.027	5809.000
-2.393	-0.030	-22.238	0.409	-0.085	-0.041	5292.000
-1.406	0.146	-21.152	0.405	-0.073	-0.039	5029.000
-3.077	-0.105	-20.786	0.386	-0.111	-0.004	4357.000
-2.213	-0.303	-19.874	0.372	-0.122	-0.046	3973.000
-1.436	-0.040	-19.568	0.366	-0.123	-0.016	3689.000
-1.842	0.263	-19.844	0.368	-0.128	-0.029	3061.000
-2.538	-0.182	-18.869	0.362	-0.132	-0.046	2630.000
-1.550	-0.243	-18.560	0.363	-0.122	-0.027	2243.000
-1.958	-0.332	-18.598	0.371	-0.162	-0.035	1841.000
-0.937	-0.010	-19.760	0.379	-0.153	-0.025	1518.000
-1.421	0.120	-22.296	0.399	-0.181	-0.028	1290.000
-1.300	-0.061	-21.052	0.393	-0.183	-0.042	1027.000
-0.923	0.431	-22.626	0.410	-0.207	-0.024	780.000
-1.316	0.915	-25.274	0.421	-0.220	-0.047	536.000
-1.695	0.647	-23.680	0.424	-0.228	-0.039	396.000
-1.822	1.847	-23.941	0.437	-0.208	-0.046	242.000
-7.280	-1.107	-27.465	0.431	-0.186	-0.049	205.000
2.080	1.509	-26.042	0.436	-0.231	-0.036	205.000
-4.375	1.212	-27.172	0.442	-0.226	-0.017	7.000
-0.574	1.329	-26.476	0.446	-0.239	-0.043	0.000
2.152	1.180	-27.730	0.443	-0.058	0.037	10.000
1.624	1.625	-27.220	0.443	-0.073	0.028	37.000
0.663	2.276	-26.896	0.450	-0.040	0.004	117.000
3.875	1.042	-27.327	0.428	-0.134	0.082	233.000
2.808	1.249	-25.381	0.434	0.034	-0.008	387.000
2.933	0.109	-25.735	0.423	-0.039	0.046	620.000
1.993	0.289	-24.888	0.432	-0.013	0.038	762.000
2.857	0.622	-25.362	0.441	-0.029	0.047	1040.000
2.734	0.499	-25.307	0.441	-0.017	0.038	1207.000
2.679	0.434	-24.703	0.440	-0.008	0.048	1651.000
2.815	-0.090	-24.697	0.450	-0.000	0.034	1979.000
2.748	-0.237	-25.960	0.463	0.005	0.056	2398.000
2.933	0.201	-28.128	0.489	0.039	0.047	2848.000
2.873	0.902	-29.159	0.504	0.042	0.044	3166.000
5.266	0.413	-29.836	0.506	0.104	0.051	3629.000
2.440	1.064	-30.543	0.530	0.088	0.045	4297.000
4.864	0.572	-31.558	0.530	0.133	0.052	4717.000
3.802	1.039	-32.519	0.542	0.151	0.065	5172.000
3.949	0.849	-32.168	0.540	0.160	0.054	5587.000
2.766	0.537	-31.418	0.531	0.139	0.047	5873.000
2.532	0.803	-32.588	0.542	0.131	0.053	6199.000
1.882	0.458	-32.453	0.536	0.170	0.035	6507.000
1.675	0.501	-30.711	0.533	0.146	0.055	6774.000
1.869	0.279	-31.325	0.525	0.166	0.050	7113.000
1.514	-0.025	-29.553	0.509	0.169	0.037	7347.000
3.010	0.390	-28.208	0.499	0.156	0.056	7533.000
3.204	0.477	-28.565	0.490	0.208	0.036	7624.000
4.632	-0.253	-26.860	0.485	0.167	0.022	7724.000
-3.248	-1.980	-28.190	0.475	0.298	0.023	7724.000
6.020	0.387	-26.509	0.481	0.199	0.053	7964.000
1.906	-0.228	-26.512	0.459	0.181	0.069	7996.000
1.066	-0.348	-23.127	0.448	0.142	-0.009	8000.000
-2.370	-0.918	-23.527	0.449	0.005	-0.044	7959.000
1.202	0.060	-22.871	0.418	0.065	-0.034	7896.000
-1.383	0.227	-23.547	0.417	0.051	-0.054	7823.000
-1.394	-0.571	-22.432	0.398	0.028	-0.024	7666.000
0.117	0.637	-21.067	0.402	0.004	-0.042	7516.000
-1.740	-0.155	-21.954	0.399	-0.026	-0.003	7316.000
-2.480	-0.378	-22.299	0.403	-0.022	-0.043	7054.000
-2.031	0.045	-22.332	0.409	-0.029	-0.043	6963.000
-2.569	0.252	-22.284	0.402	-0.059	-0.010	6586.000
-1.497	0.081	-22.038	0.406	-0.045	-0.047	6236.000
-1.363	-0.377	-21.611	0.404	-0.042	-0.024	5931.000
-1.590	-0.002	-21.591	0.396	-0.064	-0.044	5485.000
-3.017	0.033	-22.249	0.396	-0.092	-0.035	5385.000
-1.210	-0.140	-20.153	0.379	-0.083	-0.032	5385.000
-1.454	-0.343	-19.695	0.366	-0.080	-0.028	4085.000
-2.279	-0.169	-20.436	0.368	-0.111	-0.020	3647.000
-1.298	0.013	-19.025	0.361	-0.092	-0.041	3273.000
-0.884	-0.110	-19.751	0.373	-0.127	-0.027	3273.000
-1.809	-0.168	-19.117	0.367	-0.144	-0.028	2351.000
-2.090	-0.002	-19.949	0.375	-0.137	-0.049	1940.000
-2.382	-0.233	-19.102	0.370	-0.176	-0.033	1571.000
-2.325	-0.008	-19.673	0.381	-0.178	-0.029	1307.000
-1.919	-0.282	-19.761	0.378	-0.192	-0.025	1029.000
-1.899	-0.466	-20.714	0.395	-0.182	-0.031	783.000
-2.312	-0.228	-22.114	0.394	-0.178	-0.031	701.000
-2.014	0.414	-21.854	0.399	-0.205	-0.039	482.000
-1.447	1.081	-23.291	0.421	-0.216	-0.036	305.000
2.558	1.289	-23.917	0.425	-0.315	-0.004	150.000
-7.518	1.714	-29.096	0.449	-0.209	-0.084	68.000
-1.969	2.050	-24.920	0.449	-0.315	-0.044	24.000
-0.511	1.374	-28.510	0.454	-0.224	-0.031	0.000
1.567	1.128	-26.729	0.441	-0.080	0.042	2.000
2.865	1.387	-27.825	0.444	-0.117	0.023	67.000
-0.331	1.634	-27.873	0.447	-0.090	0.057	156.000
4.544	1.673	-27.614	0.442	-0.091	0.007	202.000
1.690	-0.729	-25.995	0.420	-0.022	0.049	359.000
4.506	1.717	-23.163	0.431	-0.024	0.019	607.000
3.933	0.780	-26.147	0.430	-0.040	0.039	727.000
2.350	0.508	-24.585	0.432	-0.020	0.025	1024.000
2.800	0.307	-25.527	0.443	-0.021	0.041	1238.000
2.649	0.599	-25.821	0.451	-0.006	0.033	1611.000
1.922	0.395	-25.124	0.451	0.002	0.053	1921.000
2.410	-0.064	-24.140	0.453	0.007	0.021	2293.000
2.616	0.078	-26.940	0.467	0.036	0.049	2401.000
2.428	0.311	-27.618	0.483	0.063	0.039	2401.000
4.351	0.039	-29.056	0.494	0.093	0.059	3691.000
2.378	0.593	-30.512	0.519	0.036	0.051	4219.000
4.118	0.522	-31.344	0.525	0.144	0.031	4557.000
3.347	0.976	-31.329	0.539	0.125	0.065	5003.000
3.827	0.605	-31.791	0.534	0.137	0.063	5549.000
2.308	0.557	-31.709	0.535	0.134	0.037	5786.000
2.553	1.346	-32.505	0.550	0.159	0.054	6257.000
3.456	0.684	-32.972	0.540	0.173	0.044	6578.000
3.282	0.420	-30.341	0.531	0.178	0.033	6839.000
3.372	0.200	-30.214	0.518	0.194	0.054	7061.000
2.812	0.743	-29.885	0.515	0.189	0.036	7297.000
1.788	0.224	-26.797	0.487	0.210	0.022	7495.000
3.171	-0.094	-28.786	0.488	0.201	0.043	7682.000
1.313	0.159	-27.958	0.472	0.201	0.034	7682.000
8.594	1.870	-27.085	0.482	0.051	0.070	7893.000
1.074	-0.355	-25.272	0.450	0.279	0.024	7893.000
3.508	0.316	-23.892	0.448	0.156	0.026	7998.000
2.701	-0.729	-24.110	0.439	0.168	0.015	8000.000
-2.691	-0.941	-21.270	0.436	0.001	-0.034	7999.000
-1.745	0.017	-22.770	0.435	-0.006	0.027	7999.000
-1.543	-0.121	-23.808	0.423	-0.037	-0.015	7857.000
-4.490	-1.405	-21.524	0.399	0.031	-0.067	7734.000
-0.310	1.013	-21.947	0.404	-0.044	0.006	7577.000
-3.218	0.039	-21.801	0.402	-0.014	-0.036	7401.000
-2.529	-0.040	-21.278	0.398	-0.017	-0.062	7354.000
-1.303	-0.159	-22.206	0.396	-0.042	-0.009	6940.000
-1.037	0.103	-21.587	0.397	-0.009	-0.027	6687.000
-1.941	0.227	-22.816	0.410	-0.049	-0.042	6468.000
-1.285	-0.068	-21.434	0.396	-0.029	-0.028	6005.000
-2.229	-0.026	-22.552	0.404	-0.042	-0.040	6005.000
-1.162	-0.274	-20.409	0.379	-0.055	-0.029	5337.000
-2.515	-0.003	-19.470	0.375	-0.104	-0.036	4863.000
-1.123	0.302	-18.981	0.363	-0.055	-0.025	4385.000
-0.701	-0.155	-21.031	0.376	-0.085	-0.044	4226.000
-2.676	-0.170	-19.885	0.362	-0.142	-0.019	3434.000
-0.834	-0.152	-18.342	0.355	-0.079	-0.027	2910.000
-1.695	-0.443	-19.641	0.383	-0.138	-0.025	2686.000
-0.783	0.103	-18.950	0.365	-0.145	-0.033	2133.000
-1.960	-0.056	-18.928	0.371	-0.152	-0.038	1829.000
-2.461	-0.305	-21.121	0.392	-0.194	-0.012	1583.000
-3.468	0.414	-22.238	0.402	-0.204	-0.036	1231.000
-2.687	-0.046	-20.342	0.394	-0.209	-0.035	1231.000
-2.154	-0.390	-19.808	0.387	-0.194	-0.016	772.000
-2.097	0.047	-22.263	0.401	-0.235	-0.021	508.000
-1.353	1.339	-24.027	0.424	-0.242	-0.040	359.000
-1.000	2.054	-22.710	0.424	-0.257	-0.027	359.000
1.070	1.989	-22.572	0.428	-0.208	-0.078	135.000
-4.931	-0.848	-25.014	0.422	-0.299	-0.023	44.000
0.910	0.018	-24.902	0.422	-0.240	-0.013	2.000
-2.068	0.813	-25.373	0.434	-0.220	-0.032	0.000
2.523	1.222	-27.012	0.433	-0.109	0.014	21.000
2.782	1.468	-28.120	0.442	-0.032	0.055	30.000
0.519	0.909	-27.869	0.445	-0.017	0.019	147.000
7.256	4.047	-27.551	0.458	-0.176	0.042	242.000
0.008	1.690	-26.024	0.448	-0.086	0.032	400.000
4.524	1.461	-27.208	0.454	-0.074	0.046	578.000
2.049	1.173	-28.364	0.462	-0.039	0.039	804.000
3.158	1.184	-28.105	0.471	-0.016	0.045	984.000
2.682	1.164	-28.916	0.480	-0.026	0.036	1264.000
3.201	0.564	-27.720	0.482	-0.016	0.045	1582.000
2.011	0.139	-28.664	0.498	-0.004	0.040	1910.000
3.200	0.329	-28.718	0.497	0.009	0.055	1991.000
2.469	0.148	-30.457	0.507	0.022	0.064	2615.000
4.202	0.838	-29.660	0.513	0.071	0.030	2615.000
2.863	0.152	-30.621	0.520	0.061	0.049	3607.000
1.209	0.583	-30.060	0.521	0.070	0.059	4108.000
3.709	0.624	-30.543	0.523	0.109	0.048	4350.000
1.358	0.814	-30.829	0.525	0.071	0.076	4350.000
2.528	0.519	-31.576	0.538	0.112	0.058	5475.000
2.010	0.640	-31.204	0.532	0.134	0.046	5475.000
3.758	0.881	-32.292	0.541	0.196	0.060	5475.000
3.759	1.083	-33.521	0.546	0.218	0.029	6424.000
4.626	1.039	-33.320	0.550	0.240	0.052	6424.000
4.767	1.014	-33.107	0.549	0.251	0.044	7027.000
4.102	0.511	-32.307	0.528	0.238	0.043	7090.000
4.581	0.609	-31.738	0.541	0.228	0.058	7090.000
2.959	1.143	-32.901	0.551	0.215	0.048	7625.000
1.648	0.739	-30.379	0.518	0.247	0.024	7781.000
3.505	-1.838	-30.655	0.498	0.173	0.082	7835.000
3.020	0.259	-26.017	0.483	0.243	0.015	7947.000
3.467	0.108	-25.887	0.465	0.111	0.039	7995.000
1.517	-0.482	-25.113	0.465	0.166	0.024	7995.000
2.498	-0.414	-25.569	0.459	0.158	0.011	8000.000
1.276	-0.648	-22.971	0.450	0.140	0.025	8000.000
-1.301	-0.758	-22.851	0.443	0.026	-0.038	7975.000
-1.410	-0.135	-22.900	0.405	0.106	-0.072	7901.000
-1.847	-0.452	-23.590	0.399	0.063	-0.043	7856.000
1.900	0.236	-21.830	0.395	0.026	-0.004	7704.000
-1.358	-1.000	-21.486	0.375	0.050	-0.053	7519.000
-1.045	-0.193	-20.687	0.384	0.015	-0.034	7284.000
-1.425	0.340	-20.420	0.376	-0.019	-0.002	7070.000
-2.076	-0.129	-20.703	0.377	-0.044	-0.038	6817.000
-2.867	-0.200	-20.209	0.389	-0.054	-0.027	6648.000
-1.826	-0.255	-19.801	0.373	-0.025	-0.018	6648.000
-2.024	-0.169	-19.345	0.364	-0.055	-0.037	5834.000
-2.014	-0.013	-19.354	0.377	-0.061	-0.023	5646.000
-3.316	0.309	-20.336	0.374	-0.100	-0.029	5058.000
-1.473	-0.223	-19.632	0.361	-0.063	-0.022	5058.000
-1.887	-0.185	-18.708	0.352	-0.097	-0.027	5058.000
-2.595	0.265	-18.117	0.343	-0.121	-0.033	3899.000
-0.342	-0.110	-20.212	0.362	-0.103	-0.028	3197.000
-2.160	-0.331	-19.597	0.362	-0.130	-0.029	2809.000
-1.327	-0.448	-17.986	0.352	-0.129	-0.017	2809.000
-2.714	-0.125	-19.015	0.371	-0.162	-0.015	1951.000
-2.318	0.190	-19.936	0.382	-0.177	-0.033	1832.000
-1.837	-0.225	-19.703	0.373	-0.173	-0.026	1394.000
-1.786	-0.108	-19.888	0.392	-0.181	-0.027	1126.000
-1.545	-0.033	-19.871	0.375	-0.184	-0.023	1126.000
-0.899	0.654	-21.589	0.399	-0.212	-0.032	641.000
-1.703	0.351	-23.544	0.412	-0.209	-0.039	464.000
-1.256	0.281	-23.147	0.407	-0.211	-0.026	464.000
-1.745	-1.103	-22.187	0.403	-0.135	-0.040	195.000
1.702	1.414	-24.259	0.422	-0.262	-0.014	67.000
-1.688	0.833	-28.236	0.437	-0.279	-0.021	46.000
-1.425	1.145	-26.815	0.439	-0.233	-0.052	14.000
-0.567	1.883	-26.802	0.442	-0.230	-0.011	0.000
-1.834	1.241	-26.310	0.440	-0.233	-0.030	0.000
3.659	1.393	-28.040	0.439	-0.053	0.033	15.000
4.460	1.519	-26.532	0.440	-0.071	0.050	83.000
2.276	0.112	-28.195	0.436	-0.051	0.052	83.000
5.861	2.967	-26.898	0.458	-0.010	-0.015	83.000
3.932	0.128	-29.420	0.441	-0.054	0.071	445.000
3.576	1.999	-26.718	0.463	-0.044	0.027	542.000
3.189	1.324	-26.598	0.451	-0.072	0.044	669.000
2.185	1.029	-26.196	0.457	-0.047	0.029	1076.000
2.940	1.059	-28.358	0.476	-0.028	0.034	1076.000
2.533	0.563	-29.328	0.488	-0.004	0.043	1076.000
2.956	0.518	-29.091	0.504	0.014	0.051	1076.000
3.996	1.119	-30.110	0.522	0.033	0.043	1076.000
5.044	0.600	-31.346	0.524	0.049	0.051	1076.000
2.488	0.587	-32.067	0.537	0.050	0.048	1076.000
4.391	1.035	-32.382	0.549	0.113	0.050	1076.000
3.884	0.377	-33.288	0.555	0.128	0.054	1076.000
2.704	1.795	-33.978	0.569	0.116	0.043	1076.000
5.089	0.850	-34.732	0.570	0.170	0.043	1076.000
3.149	1.002	-35.565	0.581	0.166	0.043	1076.000
3.448	1.185	-35.611	0.586	0.176	0.054	1076.000
2.665	1.132	-36.019	0.591	0.178	0.051	1076.000
3.005	1.190	-36.101	0.595	0.181	0.058	1076.000
3.102	1.076	-36.436	0.598	0.205	0.067	1076.000
3.045	1.228	-36.781	0.604	0.206	0.061	1076.000
3.761	1.529	-36.691	0.607	0.235	0.058	1076.000
3.124	1.380	-37.973	0.610	0.252	0.048	1076.000
2.854	0.803	-37.975	0.609	0.254	0.050	1076.000
-1.206	1.235	-36.033	0.610	0.313	0.042	1076.000
7.280	0.775	-36.588	0.607	0.237	0.095	1076.000
-0.623	0.684	-38.170	0.612	0.289	0.051	1076.000
4.819	0.987	-36.658	0.605	0.276	0.042	1076.000
2.292	1.104	-37.635	0.613	0.246	0.067	1076.000
2.523	1.084	-36.658	0.607	0.251	0.039	1076.000
3.564	0.998	-37.290	0.609	0.249	0.047	8000.000
-1.110	1.126	-37.179	0.615	0.114	-0.007	7990.000
-2.916	0.806	-37.345	0.614	0.033	-0.056	7990.000
-2.944	0.400	-37.327	0.602	0.052	-0.051	7990.000
-2.349	0.953	-32.896	0.588	0.029	-0.027	7771.000
-2.100	-0.175	-33.095	0.552	0.020	-0.067	7648.000
-2.561	0.152	-28.068	0.507	-0.018	-0.027	7401.000
-2.492	0.291	-26.438	0.472	-0.037	-0.016	7240.000
-1.893	-0.052	-25.297	0.453	-0.011	-0.048	7240.000
-1.428	-0.195	-25.068	0.438	-0.017	-0.030	7240.000
-1.960	-0.098	-24.336	0.428	-0.036	-0.028	7240.000
-1.212	0.042	-22.082	0.402	-0.020	-0.036	6100.000
-1.545	-0.230	-20.834	0.385	-0.051	-0.022	5666.000
-2.156	0.061	-20.307	0.377	-0.055	-0.023	5503.000
-2.721	-0.050	-20.036	0.369	-0.075	-0.014	5503.000
-0.652	-0.313	-19.435	0.356	-0.060	-0.024	5503.000
-0.583	-0.093	-19.199	0.359	-0.090	-0.027	3995.000
-2.621	-0.362	-18.888	0.352	-0.115	-0.032	3995.000
0.200	-0.279	-18.133	0.345	-0.091	-0.034	3126.000
-2.820	-0.554	-17.963	0.349	-0.131	-0.020	2814.000
-0.853	-0.567	-17.380	0.341	-0.124	-0.020	2814.000
-2.295	-0.503	-17.448	0.345	-0.159	-0.024	2814.000
-1.663	-0.569	-17.031	0.339	-0.145	-0.018	2814.000
-1.996	-0.458	-16.937	0.338	-0.168	-0.016	2814.000
-1.408	-0.136	-16.469	0.335	-0.163	-0.023	2814.000
-2.041	-0.431	-16.858	0.327	-0.154	-0.019	2814.000
-0.750	-0.434	-16.043	0.327	-0.141	-0.033	2814.000
-1.326	-0.305	-16.445	0.321	-0.160	-0.020	2814.000
-1.272	-1.220	-16.611	0.313	-0.155	-0.033	2814.000
-5.994	0.217	-18.223	0.314	-0.140	0.009	2814.000
-2.149	-0.484	-15.763	0.326	-0.169	-0.007	2814.000
-1.897	0.682	-18.261	0.322	-0.190	-0.017	2814.000
-1.389	0.398	-16.588	0.317	-0.152	-0.008	2814.000
-1.038	-0.269	-16.955	0.319	-0.143	-0.015	2814.000
-0.734	0.270	-16.947	0.318	-0.155	-0.019	2814.000
-1.112	-0.171	-16.844	0.319	-0.147	-0.013	2814.000
-0.759	0.134	-16.987	0.319	-0.152	-0.017	2814.000
-1.115	-0.059	-16.849	0.318	-0.149	-0.015	2814.000
-0.842	0.077	-17.091	0.320	-0.149	-0.015	0.000
0.636	0.337	-18.349	0.327	-0.103	0.008	9.000
2.103	0.623	-20.379	0.346	-0.038	0.033	43.000
3.548	0.820	-22.283	0.366	-0.074	0.048	43.000
-2.135	-0.294	-25.122	0.370	0.016	0.063	43.000
6.692	3.883	-19.790	0.391	-0.018	-0.009	367.000
2.391	-0.137	-23.952	0.400	-0.005	0.038	417.000
2.485	0.745	-25.085	0.434	-0.037	0.032	747.000
2.348	0.207	-27.334	0.451	-0.058	0.052	900.000
2.383	0.670	-27.037	0.465	-0.031	0.035	900.000
3.019	0.884	-28.013	0.478	-0.028	0.042	900.000
2.729	0.975	-28.190	0.492	0.010	0.021	900.000
3.318	0.947	-30.360	0.512	0.030	0.049	2243.000
4.863	0.824	-30.742	0.521	0.044	0.046	2637.000
3.530	0.500	-32.283	0.539	0.056	0.045	2725.000
3.064	0.844	-32.320	0.550	0.076	0.044	2725.000
5.021	0.553	-33.451	0.556	0.134	0.049	2725.000
2.200	0.941	-34.217	0.568	0.089	0.064	4314.000
4.468	0.736	-34.838	0.574	0.157	0.079	4314.000
4.410	0.691	-35.551	0.581	0.147	0.066	4314.000
4.024	0.697	-35.711	0.588	0.175	0.044	5726.000
3.108	1.070	-35.680	0.592	0.178	0.073	6106.000
2.225	1.201	-35.766	0.595	0.160	0.036	6428.000
1.834	0.540	-33.928	0.571	0.162	0.050	6514.000
2.158	1.185	-34.465	0.581	0.170	0.063	6514.000
2.806	0.941	-35.288	0.586	0.214	0.048	6514.000
2.123	0.997	-36.021	0.596	0.244	0.054	7419.000
3.948	0.274	-34.253	0.576	0.228	0.049	7419.000
1.908	0.585	-32.316	0.557	0.235	0.023	7419.000
2.727	1.282	-34.395	0.571	0.154	0.040	7857.000
1.624	1.130	-32.003	0.548	0.188	0.096	7938.000
2.796	0.083	-30.296	0.545	0.271	0.009	7938.000
2.824	-0.129	-31.287	0.546	0.212	0.047	7938.000
1.723	0.147	-31.317	0.551	0.203	0.047	7938.000
2.114	0.276	-32.435	0.552	0.207	0.039	8000.000
-2.005	-0.369	-28.443	0.530	0.003	-0.026	7982.000
-4.711	-0.565	-27.017	0.497	-0.063	-0.054	7972.000
-4.571	-0.317	-25.820	0.479	-0.055	-0.056	7972.000
-5.545	-0.198	-25.001	0.466	-0.022	-0.031	7972.000
-3.514	0.197	-24.106	0.450	-0.056	-0.042	7644.000
-2.301	-0.629	-21.943	0.418	-0.040	-0.027	7644.000
-2.675	-0.266	-22.377	0.405	-0.022	-0.012	7644.000
-1.694	-0.117	-21.339	0.400	-0.011	-0.041	6998.000
-1.133	-0.213	-20.888	0.374	-0.014	-0.033	6788.000
-2.434	-0.169	-19.581	0.372	-0.044	-0.019	6545.000
-1.336	-0.442	-19.684	0.364	-0.043	-0.031	6545.000
-1.637	-0.177	-19.008	0.358	-0.053	-0.022	5604.000
-0.689	-0.510	-18.859	0.346	-0.044	-0.021	5302.000
-2.512	-0.711	-18.497	0.341	-0.095	-0.032	5185.000
-1.329	-0.325	-17.416	0.333	-0.083	-0.025	5185.000
-1.045	-0.795	-17.545	0.321	-0.062	-0.023	3952.000
-1.903	-0.137	-16.317	0.323	-0.105	-0.035	3453.000
-1.183	-0.409	-16.218	0.319	-0.108	-0.018	3453.000
-0.848	-0.481	-16.138	0.317	-0.115	-0.031	3453.000
-1.343	-0.616	-15.397	0.318	-0.098	-0.023	2070.000
-0.697	-0.642	-16.518	0.322	-0.120	-0.014	1694.000
-1.305	-0.269	-16.489	0.330	-0.143	-0.034	1410.000
-1.430	-0.128	-18.986	0.360	-0.156	-0.029	1314.000
-1.677	0.036	-19.552	0.368	-0.171	-0.024	1314.000
-2.014	0.075	-19.182	0.357	-0.180	-0.032	1314.000
-1.404	-0.399	-17.504	0.351	-0.165	-0.034	452.000
-1.743	0.524	-20.842	0.378	-0.201	-0.031	452.000
-2.078	-0.632	-20.022	0.370	-0.204	-0.025	452.000
-4.000	-1.784	-22.286	0.355	-0.255	0.020	137.000
3.110	3.139	-21.608	0.400	-0.269	-0.058	32.000
-2.063	0.712	-22.951	0.388	-0.162	-0.034	32.000
-1.099	0.264	-21.792	0.385	-0.206	-0.025	1.000
3.707	1.123	-24.967	0.396	-0.053	0.042	10.000
4.835	0.840	-25.525	0.401	-0.041	0.038	10.000
3.237	0.674	-23.285	0.411	0.003	0.002	10.000
1.861	-1.233	-26.027	0.402	-0.023	0.072	261.000
2.953	1.853	-25.594	0.440	-0.037	0.002	394.000
2.314	1.284	-27.491	0.445	-0.085	0.054	394.000
1.715	0.540	-26.983	0.453	-0.054	0.027	394.000
2.969	0.766	-27.729	0.463	-0.037	0.040	1116.000
3.063	0.815	-29.242	0.486	-0.021	0.046	1116.000
3.291	0.767	-28.924	0.493	-0.007	0.039	1116.000
3.244	0.737	-28.966	0.504	0.023	0.041	2054.000
3.199	0.564	-29.895	0.512	0.028	0.050	2433.000
4.044	0.533	-31.214	0.530	0.072	0.031	2797.000
3.360	1.161	-31.675	0.540	0.035	0.053	2797.000
2.615	0.345	-32.570	0.546	0.069	0.048	2797.000
4.617	0.766	-33.112	0.557	0.124	0.042	4337.000
1.631	0.710	-33.606	0.559	0.077	0.062	4337.000
3.667	0.628	-34.074	0.569	0.153	0.038	5065.000
3.135	0.580	-33.463	0.563	0.134	0.061	5439.000
3.697	0.435	-33.488	0.562	0.159	0.055	5439.000
3.620	0.688	-33.327	0.558	0.161	0.038	5439.000
2.822	0.759	-33.677	0.570	0.196	0.064	6588.000
2.968	0.385	-31.951	0.552	0.179	0.040	6837.000
2.705	0.409	-32.205	0.561	0.182	0.038	6992.000
2.355	0.144	-30.976	0.536	0.216	0.037	7327.000
2.932	-0.047	-29.318	0.513	0.184	0.029	7446.000
1.755	-0.337	-26.906	0.487	0.167	0.040	7446.000
4.142	0.873	-26.776	0.495	0.177	0.055	7827.000
-0.482	0.367	-28.215	0.493	0.217	0.023	7884.000
0.987	1.074	-26.659	0.486	0.122	0.023	7975.000
1.977	-0.721	-27.711	0.471	0.205	0.046	7995.000
0.820	-0.432	-23.014	0.453	0.154	0.027	7995.000
2.120	-0.564	-25.144	0.462	0.164	0.028	8000.000
1.730	-0.418	-24.465	0.456	0.144	0.023	8000.000
1.976	-0.526	-23.969	0.456	0.162	0.025	8000.000
1.403	-0.679	-24.009	0.454	0.150	0.019	7998.000
-2.298	-0.713	-22.472	0.451	0.008	-0.046	7987.000
0.596	-1.154	-22.015	0.420	-0.006	-0.013	7941.000
2.794	-0.063	-21.672	0.406	0.001	-0.024	7941.000
-2.739	-0.172	-22.542	0.404	0.062	-0.053	7941.000
-0.056	0.039	-21.717	0.394	0.001	-0.004	7547.000
-0.962	-0.425	-21.304	0.377	0.009	-0.035	7547.000
-1.404	-0.517	-19.646	0.371	0.012	-0.036	7547.000
-1.269	-0.003	-19.926	0.367	-0.035	-0.022	6814.000
-2.075	-0.585	-19.068	0.357	-0.023	-0.035	6563.000
-1.304	-0.372	-19.078	0.354	-0.023	-0.023	6245.000
-1.630	-0.296	-20.005	0.370	-0.064	-0.024	6245.000
-2.334	0.001	-20.294	0.380	-0.046	-0.027	6245.000
-2.452	-0.732	-18.647	0.354	-0.076	-0.016	6245.000
-0.197	-0.419	-19.505	0.353	-0.065	-0.035	4925.000
-2.184	-0.613	-18.186	0.337	-0.097	-0.019	4925.000
-2.348	-0.257	-17.575	0.334	-0.114	-0.024	4925.000
-0.317	-0.564	-18.719	0.340	-0.089	-0.038	3289.000
-2.618	-0.053	-17.327	0.337	-0.139	-0.010	3177.000
-1.257	-0.896	-16.551	0.329	-0.109	-0.036	3177.000
-1.735	-0.509	-16.207	0.330	-0.147	-0.025	3177.000
-1.179	-0.385	-17.755	0.344	-0.135	-0.017	3177.000
-1.283	-0.347	-18.090	0.362	-0.149	-0.033	3177.000
-1.135	-0.788	-18.508	0.347	-0.137	-0.024	3177.000
-1.018	-0.361	-17.227	0.338	-0.135	-0.027	877.000
-0.971	-0.573	-17.228	0.333	-0.156	-0.023	618.000
-1.580	-0.101	-17.801	0.343	-0.157	-0.028	458.000
-1.684	0.328	-19.704	0.355	-0.175	-0.036	458.000
-2.685	1.065	-22.257	0.382	-0.177	-0.026	458.000
-2.719	-1.133	-22.184	0.374	-0.094	-0.054	116.000
0.314	0.068	-23.348	0.384	-0.226	-0.002	45.000
0.239	1.217	-23.436	0.399	-0.246	-0.009	45.000
-1.224	0.438	-23.246	0.394	-0.183	-0.036	0.000
0.153	0.944	-23.567	0.397	-0.158	0.002	12.000
2.133	1.124	-25.303	0.410	-0.055	0.030	12.000
3.999	1.239	-25.415	0.413	-0.087	0.043	12.000
-4.092	0.265	-27.061	0.413	0.026	0.046	12.000
7.310	4.157	-23.573	0.430	-0.039	0.006	12.000
2.426	-0.123	-25.733	0.423	-0.013	0.041	12.000
2.924	0.990	-24.948	0.438	-0.035	0.027	778.000
2.421	0.468	-28.283	0.457	-0.052	0.054	916.000
2.777	0.809	-28.164	0.474	-0.035	0.031	1156.000
2.632	0.842	-28.799	0.493	-0.021	0.044	1156.000
3.182	0.914	-29.591	0.504	-0.010	0.032	1156.000
3.347	0.760	-30.243	0.514	0.027	0.052	2233.000
4.665	0.677	-30.907	0.528	0.036	0.056	2233.000
3.544	0.545	-31.940	0.534	0.053	0.049	2233.000
2.719	0.672	-31.828	0.547	0.071	0.039	2233.000
5.235	0.512	-32.810	0.553	0.129	0.048	3957.000
1.849	0.838	-33.675	0.563	0.084	0.061	4491.000
4.283	0.303	-33.753	0.559	0.167	0.055	4591.000
3.949	0.649	-34.763	0.572	0.153	0.072	4591.000
3.573	0.586	-35.199	0.578	0.165	0.044	4591.000
3.105	0.631	-35.269	0.585	0.167	0.060	6082.000
1.699	0.713	-33.478	0.563	0.138	0.040	6082.000
1.855	0.217	-32.596	0.551	0.147	0.045	6644.000
1.233	0.604	-30.900	0.530	0.145	0.052	6644.000
1.482	-0.073	-30.421	0.525	0.182	0.046	6644.000
1.569	0.148	-30.866	0.530	0.197	0.050	6644.000
3.689	0.568	-31.277	0.538	0.222	0.048	7611.000
1.584	0.423	-29.268	0.510	0.207	0.020	7770.000
1.583	0.495	-27.885	0.511	0.169	0.021	7836.000
1.968	0.600	-27.760	0.481	0.135	0.090	7901.000
1.515	-1.060	-24.273	0.459	0.237	0.004	7901.000
2.306	-0.471	-24.961	0.462	0.167	0.033	8000.000
1.096	-0.319	-24.644	0.463	0.160	0.037	8000.000
1.616	-0.864	-23.362	0.443	0.154	0.019	8000.000
1.854	-0.781	-22.995	0.446	0.149	0.030	8000.000
1.772	-0.692	-23.355	0.443	0.150	0.020	8000.000
-3.109	-0.686	-23.236	0.460	-0.001	-0.033	7975.000
-4.765	-0.270	-23.915	0.442	-0.019	-0.012	7975.000
-4.364	0.315	-22.823	0.430	-0.036	-0.045	7826.000
-0.854	0.630	-22.076	0.408	-0.052	-0.042	7719.000
-3.610	-1.291	-22.445	0.393	-0.031	0.011	7719.000
-2.183	0.257	-20.737	0.392	-0.036	-0.054	7719.000
-1.244	0.165	-20.698	0.383	-0.036	-0.034	7236.000
-1.654	0.233	-20.540	0.377	-0.022	-0.007	7236.000
-0.944	-0.094	-19.758	0.370	-0.020	-0.039	7236.000
-2.298	-0.076	-19.147	0.362	-0.047	-0.026	6296.000
-1.136	-0.151	-18.909	0.359	-0.045	-0.020	6192.000
-1.706	-0.271	-18.428	0.352	-0.042	-0.037	6192.000
-1.086	-0.442	-18.537	0.340	-0.047	-0.028	6192.000
-3.215	-0.087	-17.743	0.338	-0.091	-0.036	6192.000
-1.308	-0.404	-17.272	0.324	-0.065	-0.021	4418.000
0.015	-0.005	-17.288	0.323	-0.057	-0.023	3835.000
-2.288	-0.186	-17.187	0.320	-0.123	-0.030	3835.000
-0.441	-0.545	-16.234	0.319	-0.086	-0.025	3835.000
-1.788	0.011	-16.213	0.324	-0.118	-0.035	2568.000
-1.569	-0.285	-17.311	0.331	-0.106	-0.043	2176.000
-1.389	-0.133	-18.711	0.359	-0.144	-0.023	1961.000
-1.634	0.099	-20.802	0.387	-0.180	-0.024	1961.000
-1.782	-0.019	-19.460	0.371	-0.166	-0.036	1961.000
-1.957	-0.067	-18.907	0.368	-0.193	-0.021	909.000
-1.498	0.930	-20.671	0.384	-0.217	-0.034	685.000
-2.829	-0.345	-21.218	0.377	-0.198	-0.026	685.000
-2.577	-0.291	-19.878	0.373	-0.180	-0.031	685.000
-3.031	-0.004	-21.028	0.366	-0.189	-0.024	257.000
1.381	3.975	-18.090	0.386	-0.321	0.001	99.000
-4.385	-0.126	-22.341	0.388	-0.241	-0.080	99.000
-0.322	0.733	-21.390	0.379	-0.201	0.013	99.000
-1.044	0.847	-21.237	0.389	-0.192	-0.039	0.000
-1.504	0.867	-24.215	0.395	-0.183	-0.017	0.000
3.401	1.428	-24.863	0.404	-0.067	0.035	0.000
4.879	0.753	-25.582	0.402	-0.063	0.046	0.000
0.722	0.529	-24.482	0.410	0.015	0.002	0.000
3.938	0.614	-24.768	0.409	-0.041	0.057	267.000
2.094	1.248	-24.357	0.421	-0.033	0.021	439.000
2.719	1.196	-26.810	0.442	-0.082	0.047	657.000
1.624	0.810	-28.981	0.465	-0.047	0.035	737.000
3.271	1.280	-29.019	0.476	-0.042	0.028	1087.000
3.138	0.774	-29.110	0.486	-0.013	0.043	1412.000
3.403	0.723	-29.246	0.499	-0.003	0.039	1412.000
3.748	0.887	-29.846	0.513	0.030	0.048	1412.000
3.771	0.396	-30.506	0.518	0.048	0.047	1412.000
3.831	0.744	-31.021	0.526	0.066	0.038	2763.000
2.937	0.734	-29.425	0.521	0.049	0.044	3213.000
3.169	0.347	-29.640	0.514	0.072	0.049	3213.000
4.246	0.781	-31.372	0.529	0.122	0.043	3213.000
1.848	0.370	-32.362	0.544	0.068	0.065	4474.000
3.578	0.251	-32.744	0.544	0.153	0.048	4809.000
3.256	0.706	-33.024	0.558	0.125	0.034	4809.000
3.544	0.483	-33.562	0.561	0.154	0.053	5947.000
3.741	0.687	-33.724	0.566	0.165	0.050	6320.000
1.935	0.860	-33.292	0.560	0.173	0.044	6320.000
2.948	0.726	-33.690	0.571	0.188	0.054	6320.000
2.279	1.036	-34.119	0.577	0.203	0.042	7151.000
2.648	0.688	-34.574	0.574	0.244	0.041	7151.000
3.455	0.732	-35.144	0.580	0.225	0.052	7151.000
2.512	1.242	-35.076	0.582	0.228	0.043	7151.000
6.369	1.534	-34.662	0.586	0.218	0.080	7826.000
0.089	0.112	-33.091	0.553	0.247	0.044	7909.000
0.268	1.495	-31.395	0.555	0.190	0.009	7929.000
2.856	-0.123	-32.716	0.541	0.232	0.055	7929.000
1.391	-0.009	-31.139	0.547	0.207	0.031	7929.000
2.253	0.106	-31.967	0.544	0.203	0.041	8000.000
2.037	-0.161	-28.552	0.519	0.185	0.024	8000.000
-2.810	-0.285	-27.573	0.525	-0.008	-0.073	8000.000
-0.357	-0.323	-27.476	0.504	-0.026	-0.014	7942.000
2.020	-0.499	-25.183	0.462	0.005	-0.031	7828.000
-2.777	-0.216	-24.162	0.439	0.063	-0.054	7666.000
-0.300	-0.421	-22.085	0.406	0.010	-0.001	7507.000
-0.635	-0.330	-22.301	0.400	0.017	-0.040	7507.000
-1.831	-0.501	-21.310	0.391	0.009	-0.039	7507.000
-1.585	0.128	-21.334	0.388	-0.036	-0.016	7507.000
-2.403	-0.624	-19.953	0.371	-0.030	-0.039	6546.000
-1.102	-0.293	-19.894	0.367	-0.019	-0.027	6375.000
-1.683	-0.248	-19.514	0.365	-0.056	-0.016	6375.000
-1.594	-0.283	-19.323	0.357	-0.053	-0.024	6375.000
-2.593	-0.619	-18.605	0.347	-0.076	-0.018	5158.000
0.273	-0.415	-18.102	0.335	-0.055	-0.034	4812.000
-2.242	-0.453	-18.662	0.343	-0.098	-0.026	4812.000
-2.548	-0.548	-18.769	0.341	-0.127	-0.012	4812.000
-0.433	-0.605	-17.304	0.323	-0.075	-0.034	3195.000
-2.432	-0.170	-17.005	0.333	-0.134	-0.020	2803.000
-0.828	-0.641	-17.410	0.335	-0.101	-0.035	2434.000
-2.109	-0.549	-17.965	0.357	-0.163	-0.026	2338.000
-0.952	-0.590	-17.435	0.346	-0.135	-0.016	2338.000
-1.362	-0.280	-16.799	0.338	-0.139	-0.026	2338.000
-1.054	-0.567	-17.642	0.337	-0.140	-0.024	1215.000
-1.346	-0.201	-19.056	0.358	-0.162	-0.030	1215.000
-1.363	-0.739	-18.538	0.346	-0.153	-0.024	1215.000
-1.203	-0.023	-17.331	0.343	-0.157	-0.029	435.000
-1.974	-0.031	-20.628	0.365	-0.170	-0.035	302.000
-2.748	1.161	-20.163	0.361	-0.172	-0.022	302.000
-1.030	-2.447	-21.185	0.351	-0.105	-0.026	302.000
0.257	-0.040	-19.950	0.357	-0.194	-0.031	29.000
-1.956	1.523	-22.938	0.388	-0.198	-0.007	3.000
-1.610	0.804	-23.633	0.391	-0.171	-0.036	3.000
-0.764	1.048	-23.080	0.389	-0.200	-0.019	3.000
-1.149	0.987	-23.526	0.391	-0.182	-0.028	0.000
1.590	1.096	-23.519	0.388	-0.111	0.009	11.000
3.235	1.290	-25.727	0.408	-0.041	0.039	11.000
5.740	1.795	-24.254	0.416	-0.027	0.030	11.000
5.062	2.400	-26.825	0.415	-0.125	0.080	249.000
3.228	1.544	-23.898	0.434	-0.034	0.015	385.000
1.606	0.580	-26.948	0.442	-0.110	0.046	435.000
1.084	0.891	-27.363	0.458	-0.059	0.026	435.000
3.442	1.230	-28.159	0.466	-0.053	0.028	435.000
3.168	0.903	-29.208	0.482	-0.015	0.039	1271.000
3.754	1.008	-29.362	0.497	-0.000	0.040	1442.000
4.113	0.721	-29.981	0.508	0.011	0.059	1442.000
3.942	0.941	-30.354	0.519	0.032	0.030	1442.000
3.671	1.035	-30.754	0.529	0.064	0.036	2746.000
4.478	0.579	-31.669	0.531	0.057	0.058	3111.000
2.723	1.144	-31.822	0.545	0.049	0.050	3221.000
3.111	0.240	-32.159	0.547	0.096	0.050	3221.000
2.784	0.641	-32.839	0.554	0.084	0.046	4482.000
1.293	0.930	-34.044	0.565	0.098	0.049	4619.000
2.639	0.589	-34.255	0.568	0.147	0.031	4619.000
3.100	0.978	-34.671	0.578	0.149	0.053	5863.000
4.293	1.121	-35.039	0.582	0.195	0.053	6201.000
3.670	0.826	-34.442	0.575	0.192	0.052	6461.000
3.562	0.903	-33.973	0.573	0.179	0.052	6715.000
3.097	0.665	-32.945	0.564	0.194	0.044	6715.000
2.192	0.697	-34.219	0.573	0.212	0.037	6715.000
4.322	0.723	-34.608	0.578	0.231	0.054	7485.000
1.689	0.346	-32.878	0.560	0.210	0.041	7615.000
2.134	0.580	-31.602	0.548	0.209	0.060	7708.000
-1.798	-1.938	-31.292	0.538	0.360	0.008	7708.000
5.641	1.256	-32.862	0.553	0.133	0.025	7959.000
1.057	-0.830	-30.875	0.533	0.211	0.065	7993.000
1.424	-0.147	-26.824	0.511	0.196	0.024	8000.000
2.294	-0.334	-28.913	0.517	0.185	0.036	8000.000
2.290	-0.132	-28.421	0.515	0.177	0.024	8000.000
1.560	-0.330	-27.597	0.515	0.168	0.026	7999.000
-2.373	-1.107	-24.351	0.482	0.007	-0.042	7982.000
1.049	-0.064	-24.465	0.452	0.080	-0.059	7952.000
-2.569	0.224	-26.847	0.449	0.062	-0.038	7952.000
-0.174	0.061	-23.641	0.430	0.033	-0.023	7676.000
-0.449	0.513	-23.079	0.425	0.020	-0.053	7676.000
-1.148	-0.438	-21.738	0.396	-0.011	-0.005	7287.000
-1.684	-0.236	-20.979	0.379	-0.011	-0.022	7063.000
-1.484	-0.377	-19.969	0.375	-0.012	-0.038	6794.000
-2.370	-0.086	-20.597	0.376	-0.048	-0.009	6794.000
-1.251	-0.097	-19.495	0.366	-0.019	-0.029	6794.000
-1.513	-0.230	-19.158	0.361	-0.044	-0.037	6794.000
-1.589	-0.088	-19.030	0.352	-0.053	-0.026	6794.000
-2.754	0.063	-18.788	0.347	-0.084	-0.033	6794.000
-1.322	-0.322	-17.367	0.336	-0.056	-0.023	4779.000
-1.017	0.351	-17.481	0.329	-0.083	-0.035	4295.000
-3.123	0.194	-17.456	0.325	-0.107	-0.033	3678.000
-0.560	0.192	-17.932	0.334	-0.077	-0.031	3218.000
-2.027	-0.096	-17.620	0.334	-0.128	-0.018	3107.000
-0.939	-0.141	-16.195	0.329	-0.124	-0.022	3107.000
-2.268	-0.606	-16.255	0.325	-0.130	-0.034	3107.000
-1.953	-0.462	-15.922	0.325	-0.148	-0.031	1620.000
-2.143	-0.175	-17.876	0.348	-0.167	-0.024	1400.000
-1.290	-0.439	-17.533	0.342	-0.168	-0.022	1085.000
-1.989	-0.072	-19.560	0.364	-0.176	-0.023	1029.000
-2.680	0.262	-22.510	0.393	-0.188	-0.038	1029.000
-1.651	0.573	-21.366	0.382	-0.184	-0.035	1029.000
-1.349	0.011	-21.133	0.373	-0.205	-0.016	265.000
0.143	2.060	-22.153	0.396	-0.245	-0.026	265.000
-5.872	-0.012	-24.298	0.398	-0.179	-0.034	67.000
1.051	2.956	-22.161	0.413	-0.307	-0.031	21.000
-0.912	0.987	-25.244	0.411	-0.204	-0.037	0.000
-1.113	0.831	-24.427	0.416	-0.172	0.011	2.000
2.909	1.325	-26.451	0.417	-0.048	0.033	2.000
0.941	1.638	-26.320	0.426	-0.119	0.031	2.000
-1.275	0.552	-28.398	0.424	-0.105	0.082	219.000
4.557	2.159	-24.249	0.443	-0.085	0.015	318.000
0.999	0.632	-29.417	0.453	-0.016	0.026	318.000
4.512	1.664	-27.946	0.461	-0.014	0.035	318.000
3.064	0.799	-29.157	0.468	-0.033	0.044	931.000
2.964	1.059	-28.673	0.481	-0.021	0.032	1160.000
2.827	0.716	-29.290	0.494	-0.025	0.050	1449.000
2.435	0.905	-28.860	0.504	-0.015	0.038	1648.000
2.205	0.551	-29.649	0.513	-0.016	0.053	2145.000
2.529	0.836	-30.414	0.526	0.017	0.051	2145.000
2.911	0.642	-30.995	0.530	0.024	0.053	2145.000
3.851	0.247	-31.486	0.535	0.080	0.051	2145.000
3.961	0.863	-32.351	0.547	0.084	0.050	3810.000
2.946	0.404	-30.684	0.530	0.084	0.036	4270.000
5.127	0.456	-30.505	0.528	0.118	0.050	4615.000
2.919	0.532	-31.559	0.545	0.110	0.059	5098.000
3.610	0.437	-30.399	0.519	0.145	0.038	5476.000
2.322	0.408	-31.005	0.528	0.155	0.051	5476.000
3.550	0.835	-31.652	0.540	0.201	0.041	5476.000
3.951	0.421	-33.119	0.545	0.201	0.050	6610.000
3.516	-0.014	-30.082	0.521	0.204	0.052	6610.000
3.552	-0.110	-31.203	0.531	0.212	0.044	6610.000
2.097	0.572	-32.284	0.545	0.200	0.061	6610.000
3.931	0.983	-31.674	0.547	0.209	0.038	7557.000
2.441	-0.044	-31.534	0.539	0.229	0.053	7750.000
2.244	-1.424	-26.204	0.500	0.274	0.031	7817.000
5.569	-0.093	-29.130	0.494	0.144	0.070	7817.000
1.451	0.186	-27.499	0.494	0.255	0.014	7817.000
3.677	-0.015	-27.862	0.493	0.157	0.009	8000.000
2.819	-0.578	-24.873	0.466	0.177	0.023	8000.000
-0.339	-0.800	-23.535	0.472	0.059	-0.020	7998.000
-0.939	-0.827	-24.263	0.463	-0.021	-0.039	7948.000
-0.001	-0.826	-21.930	0.431	-0.001	-0.014	7888.000
1.902	0.457	-21.764	0.407	-0.037	-0.026	7888.000
-0.832	0.446	-21.889	0.406	0.042	-0.022	7888.000
-0.431	-0.273	-21.758	0.393	-0.006	-0.021	7528.000
-1.259	-0.166	-21.064	0.376	0.001	-0.042	7414.000
-1.721	0.004	-19.838	0.375	-0.018	-0.019	6986.000
-2.145	-0.442	-20.046	0.364	-0.042	-0.012	6817.000
-0.958	-0.176	-18.305	0.352	-0.019	-0.037	6555.000
-2.025	-0.327	-18.281	0.349	-0.051	-0.018	6334.000
-2.055	-0.122	-18.187	0.343	-0.057	-0.022	5879.000
-2.038	-0.340	-17.763	0.338	-0.082	-0.024	5582.000
-0.507	-0.274	-16.666	0.325	-0.045	-0.020	5582.000
-1.860	-0.794	-17.229	0.317	-0.086	-0.022	5582.000
-2.394	-0.033	-15.758	0.314	-0.104	-0.035	3969.000
-0.504	-0.211	-17.190	0.314	-0.078	-0.025	3506.000
-1.914	0.029	-15.589	0.312	-0.112	-0.021	3051.000
-1.358	-0.867	-16.575	0.322	-0.124	-0.020	2723.000
-1.534	-0.436	-16.484	0.327	-0.138	-0.022	2723.000
-1.808	-0.636	-15.225	0.315	-0.127	-0.015	2723.000
-0.929	-0.629	-15.359	0.311	-0.116	-0.007	1531.000
-1.245	-0.422	-16.407	0.332	-0.148	-0.021	1531.000
-1.345	-0.463	-16.988	0.332	-0.153	-0.032	1531.000
-0.848	-0.153	-16.763	0.326	-0.156	-0.014	926.000
-0.722	-0.459	-16.052	0.322	-0.131	-0.029	926.000
-1.168	-0.217	-16.248	0.312	-0.164	-0.019	346.000
-0.603	0.906	-17.396	0.333	-0.152	-0.031	231.000
-3.911	-0.549	-19.342	0.332	-0.182	-0.015	163.000
-0.121	0.325	-18.211	0.359	-0.117	-0.060	163.000
-2.950	0.179	-22.937	0.378	-0.199	-0.007	163.000
-0.455	1.004	-22.019	0.383	-0.207	-0.032	0.000
-0.652	1.137	-24.542	0.397	-0.208	-0.023	0.000
-0.766	1.661	-24.726	0.405	-0.206	-0.025	0.000
-0.644	1.606	-25.322	0.404	-0.199	-0.024	0.000
3.592	1.676	-25.687	0.401	-0.043	0.034	19.000
3.996	1.764	-27.935	0.430	-0.018	0.021	52.000
7.805	2.520	-25.712	0.436	-0.102	0.039	175.000
-0.329	0.191	-26.921	0.437	-0.003	0.026	308.000
1.955	1.207	-26.059	0.450	-0.097	0.017	308.000
0.982	0.461	-28.248	0.456	-0.089	0.049	308.000
2.771	1.166	-27.703	0.468	-0.062	0.025	906.000
2.569	0.748	-28.939	0.476	-0.030	0.049	1017.000
3.820	0.887	-29.352	0.494	-0.014	0.041	1305.000
3.556	0.934	-29.954	0.505	0.007	0.040	1761.000
3.564	0.500	-29.963	0.511	0.027	0.046	1761.000
3.744	0.697	-30.445	0.522	0.025	0.049	1761.000
3.531	0.613	-30.800	0.531	0.067	0.038	2909.000
3.686	0.267	-31.772	0.535	0.057	0.064	3332.000
1.853	0.864	-31.302	0.542	0.059	0.045	3831.000
4.578	0.485	-31.769	0.537	0.108	0.038	3831.000
1.039	1.004	-32.378	0.552	0.068	0.058	3831.000
3.220	0.428	-33.254	0.558	0.152	0.049	5033.000
2.762	0.959	-33.469	0.561	0.132	0.043	5439.000
3.848	0.588	-33.941	0.567	0.168	0.062	5439.000
3.743	0.568	-32.752	0.552	0.183	0.037	6221.000
2.966	0.388	-31.854	0.538	0.165	0.043	6221.000
2.847	0.223	-32.554	0.548	0.176	0.046	6221.000
3.473	0.390	-33.244	0.561	0.189	0.046	6221.000
4.403	0.520	-34.275	0.567	0.224	0.054	6221.000
2.749	0.596	-33.551	0.566	0.221	0.055	7549.000
3.126	0.273	-32.674	0.556	0.219	0.049	7638.000
2.465	0.816	-34.059	0.557	0.222	0.070	7638.000
4.071	0.651	-33.902	0.570	0.215	0.022	7638.000
2.654	0.522	-31.160	0.554	0.156	0.067	7961.000
1.838	-0.282	-28.951	0.526	0.255	0.046	8000.000
0.036	-0.626	-25.842	0.505	0.081	-0.005	7994.000
-2.172	-0.820	-26.476	0.499	-0.010	-0.047	7939.000
-0.265	-0.727	-22.992	0.453	-0.012	-0.006	7939.000
3.769	0.847	-24.880	0.443	-0.057	-0.029	7939.000
-3.776	-0.474	-23.028	0.431	0.044	-0.048	7939.000
0.300	0.258	-22.660	0.421	-0.011	-0.001	7939.000
-0.642	-0.131	-23.244	0.410	-0.009	-0.045	7939.000
-1.926	0.014	-21.990	0.404	-0.021	-0.032	7011.000
-2.112	-0.234	-20.833	0.383	-0.042	-0.018	6858.000
-1.837	-0.487	-20.287	0.372	-0.031	-0.034	6443.000
-2.266	-0.295	-20.068	0.372	-0.038	-0.027	6369.000
-1.542	-0.042	-19.234	0.363	-0.056	-0.017	6369.000
-1.916	-0.215	-18.886	0.352	-0.061	-0.030	6369.000
-0.625	-0.197	-18.429	0.343	-0.045	-0.021	5262.000
-1.641	-0.489	-18.044	0.333	-0.087	-0.027	4467.000
-2.829	0.100	-17.214	0.331	-0.108	-0.036	3978.000
-0.418	-0.566	-17.496	0.327	-0.067	-0.029	3604.000
-1.367	0.614	-18.259	0.350	-0.144	-0.033	3198.000
-1.334	-0.641	-16.961	0.332	-0.117	-0.029	3198.000
-2.110	-0.113	-17.980	0.344	-0.151	-0.020	2340.000
-1.491	0.133	-18.836	0.366	-0.153	-0.020	2340.000
-1.233	-0.454	-18.132	0.349	-0.131	-0.018	2340.000
-1.053	0.092	-17.313	0.347	-0.153	-0.035	1230.000
-0.886	-0.023	-18.673	0.359	-0.153	-0.019	1162.000
-0.861	-0.043	-18.108	0.349	-0.173	-0.024	1162.000
-1.870	-0.745	-18.269	0.337	-0.145	-0.025	1162.000
-1.316	-0.147	-17.769	0.342	-0.187	-0.028	367.000
-3.218	1.052	-20.326	0.364	-0.173	-0.035	291.000
0.712	2.140	-19.221	0.366	-0.266	-0.005	291.000
0.574	-0.254	-21.600	0.359	-0.135	-0.040	291.000
-1.060	0.952	-19.798	0.364	-0.196	-0.024	11.000
-0.732	1.313	-22.685	0.389	-0.189	-0.006	0.000
-1.017	1.125	-23.819	0.392	-0.184	-0.033	1.000
3.585	1.673	-26.564	0.411	-0.081	0.039	9.000
4.434	1.116	-26.380	0.420	-0.059	0.039	9.000
1.578	0.970	-26.029	0.429	0.009	0.005	9.000
3.895	0.020	-26.993	0.426	-0.033	0.064	9.000
2.539	1.864	-26.163	0.442	-0.036	0.018	435.000
2.456	1.164	-28.251	0.461	-0.085	0.053	626.000
1.681	0.382	-27.495	0.455	-0.050	0.039	888.000
2.729	0.924	-25.768	0.457	-0.038	0.025	950.000
2.925	0.419	-27.499	0.464	-0.017	0.043	1399.000
3.140	0.736	-27.670	0.483	-0.006	0.046	1399.000
3.732	0.377	-28.819	0.499	0.020	0.048	2003.000
3.521	0.930	-29.633	0.514	0.043	0.036	2108.000
4.089	0.547	-30.602	0.520	0.058	0.047	2108.000
3.499	0.996	-30.811	0.532	0.062	0.041	3109.000
3.514	0.145	-31.696	0.538	0.076	0.053	3109.000
4.497	1.080	-32.606	0.549	0.114	0.047	3109.000
1.291	0.528	-33.564	0.556	0.068	0.060	3109.000
4.337	0.796	-34.194	0.563	0.155	0.042	3109.000
3.067	0.380	-34.314	0.571	0.140	0.051	3109.000
3.860	0.877	-35.058	0.580	0.165	0.063	5981.000
3.607	0.791	-34.881	0.579	0.171	0.047	6185.000
2.333	1.078	-35.233	0.588	0.186	0.059	6185.000
3.307	1.130	-35.672	0.591	0.203	0.047	6185.000
2.137	0.651	-33.703	0.569	0.191	0.037	7165.000
2.122	-0.002	-31.911	0.551	0.210	0.045	7342.000
3.229	0.377	-32.558	0.557	0.209	0.042	7342.000
2.178	0.937	-33.920	0.565	0.212	0.041	7342.000
5.876	1.090	-33.277	0.570	0.218	0.075	7822.000
0.007	-0.307	-31.681	0.533	0.237	0.042	7921.000
-0.110	1.313	-27.449	0.526	0.176	0.000	7979.000
2.499	-0.216	-30.484	0.512	0.218	0.059	7997.000
1.017	-0.490	-25.884	0.494	0.181	0.034	7997.000
2.235	-0.654	-27.129	0.498	0.186	0.030	7997.000
2.288	-0.459	-26.777	0.495	0.165	0.023	8000.000
-2.556	-0.984	-24.471	0.492	0.019	-0.036	7999.000
-4.311	-0.365	-25.373	0.459	-0.019	-0.007	7999.000
-4.482	0.527	-23.943	0.447	-0.035	-0.045	7999.000
-0.808	0.612	-23.262	0.439	-0.054	-0.036	7718.000
-3.511	-1.188	-22.969	0.410	-0.038	0.002	7613.000
-2.246	0.709	-21.569	0.404	-0.026	-0.062	7613.000
-0.998	0.102	-20.980	0.390	-0.030	-0.023	7613.000
-1.613	0.128	-21.264	0.382	-0.020	-0.013	6899.000
-0.828	-0.359	-19.329	0.365	-0.016	-0.033	6811.000
-2.106	0.060	-19.522	0.368	-0.043	-0.026	6811.000
-1.306	-0.176	-18.841	0.358	-0.029	-0.018	6811.000
-1.414	-0.198	-18.856	0.352	-0.043	-0.045	5778.000
-1.192	-0.279	-18.119	0.339	-0.034	-0.026	5778.000
-2.538	-0.042	-17.600	0.335	-0.080	-0.031	4849.000
-1.292	-0.138	-16.926	0.325	-0.069	-0.025	4409.000
0.249	0.052	-16.881	0.316	-0.050	-0.017	4409.000
-2.647	-0.249	-16.926	0.315	-0.117	-0.033	4409.000
-0.173	-0.671	-16.347	0.315	-0.076	-0.024	2926.000
-1.985	-0.366	-18.039	0.347	-0.147	-0.017	2926.000
-1.120	-0.243	-17.581	0.338	-0.117	-0.036	2059.000
-1.367	0.021	-16.439	0.333	-0.137	-0.023	1719.000
-1.568	0.316	-19.141	0.365	-0.165	-0.027	1719.000
-1.458	0.360	-20.829	0.377	-0.188	-0.036	1719.000
-1.734	0.086	-19.561	0.373	-0.183	-0.024	893.000
-1.189	0.359	-20.266	0.382	-0.214	-0.026	893.000
-3.067	-0.272	-21.501	0.380	-0.200	-0.027	893.000
-2.462	-0.124	-20.470	0.379	-0.183	-0.033	893.000
-2.936	0.326	-21.692	0.376	-0.194	-0.029	180.000
2.232	4.250	-19.491	0.393	-0.334	-0.003	99.000
-4.416	-0.099	-22.466	0.396	-0.240	-0.088	75.000
-0.063	0.336	-22.433	0.389	-0.210	0.019	0.000
-0.610	1.064	-23.660	0.402	-0.225	-0.031	0.000
-1.364	0.974	-24.430	0.402	-0.201	-0.021	0.000
-0.931	0.989	-23.631	0.400	-0.201	-0.017	0.000
0.853	1.070	-24.652	0.402	-0.136	-0.004	1.000
4.082	1.444	-26.003	0.424	-0.067	0.042	1.000
2.328	0.813	-27.488	0.424	0.022	0.010	1.000
5.473	1.765	-24.293	0.441	-0.003	-0.012	1.000
0.581	-1.176	-29.537	0.426	-0.014	0.066	1.000
3.495	2.032	-25.949	0.448	-0.092	0.019	1.000
2.558	1.222	-27.445	0.455	-0.082	0.053	743.000
2.576	0.969	-28.045	0.473	-0.053	0.032	995.000
3.599	0.503	-28.193	0.472	-0.042	0.043	1077.000
2.700	0.034	-25.370	0.452	0.008	0.043	1077.000
3.271	0.097	-24.379	0.447	0.020	0.025	1077.000
3.115	-0.471	-22.699	0.419	0.032	0.052	2156.000
2.724	-0.101	-22.996	0.420	0.039	0.029	2156.000
3.789	-0.159	-24.528	0.439	0.056	0.032	2156.000
2.113	0.587	-26.747	0.468	0.038	0.061	3432.000
3.850	0.073	-26.993	0.475	0.084	0.033	3915.000
1.396	0.008	-26.139	0.460	0.071	0.036	4582.000
3.231	-0.024	-24.523	0.442	0.114	0.059	4582.000
3.551	0.107	-26.592	0.464	0.114	0.046	4582.000
3.664	0.351	-28.318	0.482	0.144	0.036	5822.000
3.095	-0.104	-28.798	0.492	0.154	0.036	6142.000
2.151	0.695	-29.213	0.495	0.128	0.051	6402.000
2.406	0.273	-29.473	0.502	0.152	0.042	6638.000
1.740	-0.353	-29.823	0.502	0.158	0.050	7036.000
2.156	0.000	-26.182	0.472	0.154	0.049	7227.000
2.006	0.007	-26.365	0.487	0.181	0.028	7284.000
2.184	0.113	-27.335	0.481	0.167	0.045	7614.000
2.301	-0.050	-26.771	0.479	0.184	0.043	7656.000
6.814	2.107	-27.582	0.481	0.109	0.075	7656.000
-0.488	-1.031	-26.614	0.482	0.211	0.024	7929.000
3.295	0.824	-27.547	0.482	0.174	0.029	7929.000
1.298	-0.080	-27.912	0.482	0.198	0.050	7929.000
0.650	0.174	-27.443	0.481	0.151	0.031	8000.000
-2.039	-0.602	-24.463	0.471	0.008	-0.046	7977.000
-0.312	0.306	-26.418	0.462	0.084	-0.077	7977.000
-2.868	0.232	-27.590	0.461	0.076	-0.034	7977.000
0.659	-0.155	-23.910	0.444	0.025	-0.025	7977.000
-0.865	0.383	-24.931	0.438	0.014	-0.055	7977.000
-1.595	-0.400	-21.581	0.413	-0.016	-0.007	7321.000
-1.996	-0.429	-21.641	0.393	-0.025	-0.029	7087.000
-1.479	-0.200	-19.740	0.375	-0.006	-0.032	7087.000
-2.150	-0.334	-20.040	0.365	-0.043	-0.013	7087.000
-0.947	-0.251	-18.608	0.353	-0.003	-0.035	7087.000
-1.020	-0.213	-18.334	0.344	-0.044	-0.029	6077.000
-1.751	-0.243	-17.938	0.331	-0.042	-0.015	6077.000
-2.520	-0.285	-17.028	0.323	-0.074	-0.034	6077.000
-0.840	-0.312	-16.032	0.311	-0.052	-0.011	5010.000
-0.877	-0.043	-16.017	0.304	-0.070	-0.017	5010.000
-2.625	-0.202	-15.670	0.298	-0.110	-0.030	5010.000
-0.580	-0.400	-15.594	0.303	-0.066	-0.018	3250.000
-1.991	-0.688	-15.028	0.299	-0.109	-0.012	2682.000
-0.484	-0.249	-15.761	0.307	-0.126	-0.019	2524.000
-1.912	-0.116	-16.573	0.330	-0.146	0.004	2269.000
-2.164	-0.587	-16.813	0.332	-0.165	-0.020	2269.000
-2.022	-0.611	-15.826	0.319	-0.164	-0.024	1373.000
-1.889	-0.215	-15.750	0.322	-0.160	-0.011	1208.000
-1.660	-0.145	-18.486	0.345	-0.169	-0.021	1208.000
-1.928	-0.114	-18.783	0.341	-0.148	-0.024	764.000
-1.335	-0.151	-17.183	0.332	-0.151	-0.022	764.000
-1.685	-0.614	-17.211	0.323	-0.174	-0.017	764.000
-0.367	-0.191	-14.925	0.324	-0.159	-0.016	764.000
-1.516	-0.352	-18.031	0.319	-0.189	-0.019	80.000
0.424	1.143	-17.252	0.361	-0.219	-0.036	80.000
-1.694	0.485	-20.499	0.346	-0.188	-0.005	0.000
1.315	0.764	-20.163	0.355	-0.096	0.023	2.000
3.123	0.653	-22.498	0.364	-0.030	0.035	23.000
5.815	1.256	-20.679	0.372	-0.009	0.026	23.000
4.109	2.737	-23.037	0.375	-0.127	0.059	23.000
3.393	1.132	-21.603	0.399	-0.035	0.024	389.000
1.136	0.029	-24.039	0.405	-0.101	0.048	557.000
1.295	0.627	-25.355	0.434	-0.043	0.022	557.000
2.816	0.967	-25.956	0.448	-0.051	0.026	557.000
2.931	0.706	-26.844	0.458	-0.018	0.033	1166.000
3.829	1.013	-27.608	0.475	0.003	0.039	1363.000
4.106	0.455	-28.443	0.487	0.029	0.052	1363.000
4.474	0.190	-28.638	0.493	0.035	0.047	2245.000
3.565	0.396	-29.229	0.505	0.060	0.029	2496.000
4.491	0.180	-30.593	0.519	0.062	0.065	2496.000
2.669	0.860	-31.079	0.537	0.061	0.042	2496.000
2.822	0.543	-31.744	0.546	0.098	0.039	4001.000
2.904	0.544	-33.019	0.555	0.080	0.056	4001.000
1.621	1.185	-33.992	0.569	0.106	0.047	4001.000
3.388	0.863	-34.436	0.574	0.149	0.045	4001.000
3.253	0.978	-35.271	0.581	0.156	0.046	5752.000
4.383	1.197	-36.095	0.592	0.193	0.055	6071.000
3.694	1.081	-35.874	0.591	0.212	0.056	6271.000
3.917	1.266	-36.214	0.598	0.212	0.051	6271.000
4.209	1.025	-36.794	0.602	0.216	0.059	7061.000
2.257	0.944	-35.454	0.589	0.226	0.044	7270.000
4.294	0.623	-32.396	0.561	0.198	0.053	7270.000
1.305	0.255	-31.338	0.545	0.196	0.037	7270.000
1.837	0.939	-31.061	0.546	0.214	0.056	7270.000
-1.972	-1.463	-31.408	0.539	0.360	0.000	7878.000
3.997	1.231	-30.235	0.531	0.128	0.013	7951.000
1.072	-1.107	-28.994	0.505	0.186	0.067	7964.000
1.010	-0.019	-26.936	0.503	0.194	0.023	8000.000
2.045	-0.545	-27.029	0.492	0.177	0.038	8000.000
-2.232	-0.829	-24.450	0.492	-0.036	-0.047	7969.000
-5.031	-0.203	-24.947	0.470	-0.066	-0.069	7957.000
-2.271	-0.259	-22.737	0.455	-0.033	-0.021	7957.000
-2.275	0.504	-24.015	0.429	-0.053	-0.031	7693.000
-3.167	-0.891	-21.394	0.404	-0.028	-0.039	7653.000
-1.852	0.153	-21.205	0.396	0.009	-0.020	7653.000
-1.011	0.121	-20.625	0.390	-0.017	-0.043	7653.000
-2.022	-0.165	-21.194	0.379	-0.028	-0.022	7653.000
-1.678	-0.113	-20.040	0.376	-0.019	-0.026	6586.000
-2.224	-0.204	-20.138	0.371	-0.058	-0.031	6398.000
-2.222	0.264	-20.848	0.381	-0.069	-0.035	6134.000
-2.870	-0.008	-21.142	0.387	-0.090	-0.027	6134.000
-2.292	0.247	-19.048	0.369	-0.066	-0.026	6134.000
-2.274	-0.101	-18.839	0.352	-0.080	-0.011	4890.000
-3.114	-0.431	-18.847	0.358	-0.113	-0.022	4445.000
-1.547	-0.072	-19.170	0.360	-0.095	-0.035	4445.000
-1.317	-0.272	-19.335	0.355	-0.107	-0.018	4445.000
-2.278	-0.173	-18.360	0.348	-0.133	-0.027	2828.000
-0.799	-0.373	-19.530	0.367	-0.118	-0.019	2515.000
-2.047	-0.344	-18.341	0.352	-0.153	-0.005	2515.000
-0.237	-0.119	-17.822	0.348	-0.108	-0.037	1726.000
-1.148	-0.248	-19.665	0.366	-0.149	-0.031	1410.000
-0.778	0.124	-21.624	0.397	-0.145	-0.032	1234.000
-0.890	0.115	-20.850	0.391	-0.181	-0.030	1234.000
-1.240	0.191	-19.969	0.380	-0.196	-0.025	1234.000
-1.758	0.030	-20.519	0.369	-0.208	-0.015	492.000
-1.405	0.337	-21.531	0.386	-0.228	-0.032	492.000
-2.651	0.246	-21.722	0.377	-0.223	-0.036	492.000
1.754	2.849	-20.665	0.395	-0.255	-0.083	116.000
-1.331	-1.210	-22.304	0.364	-0.111	0.009	43.000
-1.097	0.894	-22.764	0.394	-0.217	-0.050	4.000
-0.057	1.464	-24.168	0.401	-0.218	-0.005	0.000
-0.808	1.421	-24.926	0.409	-0.199	-0.033	0.000
2.398	1.350	-26.375	0.404	-0.052	0.046	17.000
1.647	0.823	-25.384	0.419	-0.043	0.033	17.000
5.601	1.047	-25.713	0.424	-0.107	0.046	17.000
0.099	-0.114	-27.106	0.436	-0.015	0.018	281.000
5.163	1.920	-26.989	0.446	-0.046	0.046	281.000
1.646	0.777	-28.277	0.459	-0.028	0.026	281.000
3.277	1.063	-28.001	0.470	-0.047	0.036	861.000
2.297	1.619	-30.451	0.492	-0.069	0.050	1136.000
3.107	1.039	-29.750	0.498	-0.040	0.037	1210.000
2.747	0.929	-30.384	0.514	-0.007	0.044	1210.000
4.621	0.820	-30.673	0.523	0.006	0.051	1891.000
3.574	1.114	-31.842	0.539	0.039	0.046	2329.000
4.784	0.995	-32.301	0.543	0.064	0.048	2842.000
2.969	0.505	-32.613	0.549	0.059	0.055	2842.000
4.565	0.740	-33.663	0.560	0.105	0.053	2842.000
4.261	0.992	-34.074	0.570	0.120	0.063	4138.000
2.447	0.374	-34.914	0.571	0.098	0.056	4668.000
5.339	0.820	-34.808	0.578	0.147	0.046	4668.000
2.719	0.794	-33.188	0.560	0.149	0.063	4668.000
3.816	1.303	-34.503	0.578	0.170	0.053	4668.000
2.054	0.853	-35.445	0.584	0.144	0.042	6254.000
2.793	1.165	-35.540	0.581	0.154	0.052	6548.000
2.072	0.581	-32.502	0.559	0.173	0.047	6548.000
1.749	0.138	-32.351	0.556	0.176	0.047	6548.000
3.171	0.607	-34.141	0.564	0.177	0.051	7324.000
2.322	0.237	-32.090	0.555	0.205	0.045	7384.000
3.483	0.712	-30.591	0.543	0.211	0.051	7648.000
4.718	0.766	-32.501	0.544	0.158	0.037	7790.000
2.860	1.166	-26.557	0.521	0.277	-0.009	7790.000
2.230	0.884	-30.657	0.509	0.185	0.071	7790.000
1.885	0.645	-28.071	0.513	0.246	0.032	7790.000
2.683	-0.196	-28.758	0.507	0.187	0.033	8000.000
-2.522	-0.143	-28.163	0.511	0.002	-0.030	7989.000
-5.180	-0.164	-27.489	0.493	-0.032	-0.043	7959.000
-5.505	0.234	-26.616	0.485	-0.037	-0.055	7823.000
-0.949	-0.359	-23.156	0.459	-0.064	-0.025	7706.000
-5.089	-0.662	-24.666	0.438	-0.034	-0.024	7656.000
-0.823	-0.210	-22.038	0.411	-0.058	-0.039	7389.000
-1.211	0.160	-21.667	0.400	-0.029	-0.018	7173.000
-1.659	0.165	-21.122	0.390	-0.009	-0.022	7096.000
-0.740	-0.018	-20.837	0.381	-0.013	-0.042	7096.000
-2.461	-0.391	-20.169	0.376	-0.038	-0.019	7096.000
-1.128	-0.466	-20.220	0.371	-0.031	-0.021	6061.000
-1.372	-0.189	-19.213	0.361	-0.034	-0.034	5818.000
-1.101	-0.533	-19.435	0.351	-0.044	-0.028	5818.000
-2.532	-0.487	-18.833	0.344	-0.083	-0.031	4734.000
-0.744	-0.165	-18.000	0.335	-0.080	-0.025	4420.000
-0.004	-0.501	-17.971	0.334	-0.047	-0.033	3789.000
-2.578	-0.140	-17.775	0.336	-0.121	-0.027	3789.000
-0.991	-0.271	-17.459	0.330	-0.092	-0.022	3789.000
-2.015	-0.224	-17.083	0.334	-0.133	-0.032	2479.000
-1.406	-0.345	-17.066	0.334	-0.105	-0.031	2152.000
-0.739	-0.433	-17.119	0.335	-0.131	-0.026	1830.000
-0.915	-0.095	-17.302	0.340	-0.134	-0.021	1721.000
-0.613	-0.220	-17.045	0.330	-0.127	-0.032	1721.000
-0.694	-0.170	-16.830	0.326	-0.133	-0.018	963.000
-1.418	0.692	-19.707	0.362	-0.188	-0.034	726.000
-2.239	-0.282	-19.021	0.347	-0.158	-0.026	726.000
-2.319	-0.676	-18.090	0.343	-0.168	-0.030	726.000
-2.587	-1.257	-18.703	0.336	-0.161	-0.027	187.000
0.630	2.379	-18.767	0.363	-0.318	0.018	187.000
-2.233	0.719	-22.189	0.386	-0.239	-0.081	187.000
-1.257	0.631	-21.303	0.370	-0.190	0.002	187.000
-0.906	1.050	-22.198	0.380	-0.198	-0.036	0.000
3.070	1.204	-24.346	0.392	-0.049	0.040	11.000
3.745	0.971	-24.212	0.391	-0.010	0.028	99.000
7.009	2.168	-24.655	0.422	-0.079	0.021	203.000
0.184	-0.396	-27.977	0.432	-0.021	0.055	266.000
2.126	1.205	-25.610	0.447	-0.082	0.008	266.000
1.195	0.635	-28.026	0.451	-0.096	0.053	266.000
2.449	1.309	-27.264	0.465	-0.058	0.022	824.000
2.825	0.825	-29.442	0.486	-0.023	0.039	824.000
4.716	0.500	-30.186	0.499	-0.012	0.053	1365.000
3.421	1.211	-30.973	0.519	0.018	0.035	1365.000
4.373	0.981	-31.331	0.527	0.023	0.045	1365.000
3.400	0.656	-31.706	0.538	0.034	0.050	2375.000
3.386	0.648	-31.931	0.545	0.059	0.044	2904.000
3.926	0.432	-32.003	0.547	0.059	0.049	3308.000
1.793	0.113	-31.673	0.541	0.055	0.051	3308.000
4.067	0.635	-33.129	0.555	0.112	0.038	3308.000
1.082	0.501	-33.678	0.564	0.088	0.055	4771.000
3.818	0.788	-34.075	0.573	0.138	0.057	5029.000
2.524	0.564	-32.501	0.557	0.132	0.058	5443.000
3.380	0.713	-32.501	0.557	0.159	0.049	5443.000
4.199	0.898	-34.149	0.567	0.185	0.050	5443.000
3.511	0.924	-34.064	0.576	0.199	0.056	6510.000
3.927	0.565	-35.106	0.579	0.204	0.035	6510.000
3.830	0.899	-35.091	0.586	0.211	0.046	6510.000
4.001	0.788	-35.786	0.585	0.229	0.047	7362.000
2.514	0.504	-33.963	0.572	0.215	0.053	7521.000
2.769	-0.167	-32.452	0.559	0.200	0.054	7696.000
3.298	1.061	-32.496	0.546	0.190	0.064	7739.000
1.516	-0.627	-27.332	0.517	0.222	-0.006	7739.000
4.149	-0.245	-30.103	0.519	0.101	0.065	7966.000
1.508	-0.536	-26.692	0.490	0.234	0.048	7966.000
1.149	-0.426	-25.081	0.482	0.158	0.029	7966.000
2.496	-0.601	-26.218	0.485	0.172	0.028	7966.000
1.644	-0.562	-25.305	0.478	0.160	0.025	7966.000
2.385	-0.708	-24.810	0.478	0.171	0.025	7966.000
1.418	-0.750	-24.889	0.477	0.155	0.023	7998.000
-1.637	-0.668	-23.406	0.469	0.019	-0.038	7987.000
-2.172	-0.459	-23.247	0.430	0.093	-0.067	7987.000
-0.819	0.161	-24.718	0.424	0.044	-0.048	7987.000
1.506	0.136	-23.591	0.420	0.036	-0.008	7695.000
-1.595	-0.642	-22.828	0.393	0.049	-0.046	7695.000
-1.110	-0.211	-20.748	0.390	0.030	-0.036	7402.000
-0.878	-0.065	-20.142	0.378	-0.011	-0.008	7241.000
-1.672	-0.338	-20.576	0.368	-0.022	-0.034	7241.000
-1.924	-0.100	-19.429	0.368	-0.036	-0.032	6594.000
-0.776	-0.254	-19.223	0.356	-0.007	-0.017	6412.000
-1.473	-0.201	-20.211	0.371	-0.041	-0.038	6412.000
-1.047	-0.093	-18.707	0.356	-0.047	-0.022	5694.000
-1.822	-0.320	-18.649	0.348	-0.074	-0.016	5378.000
-1.055	-0.314	-18.384	0.337	-0.057	-0.029	4605.000
-1.857	-0.047	-18.299	0.336	-0.091	-0.021	4270.000
-3.360	0.128	-18.316	0.341	-0.133	-0.021	4270.000
-0.111	-0.550	-17.126	0.322	-0.081	-0.022	4270.000
-2.576	-0.420	-17.163	0.331	-0.137	-0.014	3024.000
-0.376	-0.691	-16.436	0.325	-0.100	-0.027	2431.000
-2.422	-0.105	-16.900	0.344	-0.158	-0.006	2061.000
-2.180	-0.896	-16.272	0.332	-0.148	-0.007	2061.000
-1.917	-0.451	-17.560	0.341	-0.174	-0.029	1359.000
-2.368	-0.054	-19.582	0.373	-0.187	-0.022	1359.000
-1.909	0.057	-18.763	0.358	-0.182	-0.022	1359.000
-0.560	0.501	-17.683	0.351	-0.187	-0.032	625.000
-0.875	0.275	-19.964	0.357	-0.190	-0.017	477.000
-0.911	0.564	-18.639	0.361	-0.193	-0.028	385.000
-0.812	-1.482	-19.132	0.349	-0.136	-0.028	385.000
-0.831	0.794	-16.773	0.354	-0.146	-0.047	385.000
-2.710	0.152	-22.071	0.366	-0.197	-0.012	25.000
-0.324	1.158	-21.475	0.381	-0.219	-0.028	2.000
0.362	1.118	-22.385	0.381	-0.209	-0.006	2.000
-1.533	0.885	-22.182	0.382	-0.196	-0.022	2.000
-0.057	0.725	-22.137	0.381	-0.189	-0.022	2.000
3.342	1.051	-22.720	0.377	-0.025	0.037	2.000
3.372	2.075	-27.062	0.422	0.000	0.014	97.000
8.288	2.527	-26.845	0.429	-0.130	0.067	190.000
0.208	1.060	-25.878	0.437	-0.022	0.012	190.000
1.431	1.412	-26.816	0.453	-0.103	0.028	500.000
0.190	0.983	-29.401	0.464	-0.087	0.033	549.000
3.627	1.558	-28.132	0.477	-0.082	0.032	549.000
2.766	0.544	-29.624	0.483	-0.016	0.052	549.000
4.325	1.061	-29.599	0.499	-0.013	0.047	549.000
4.399	0.826	-30.168	0.512	0.011	0.039	1709.000
3.701	0.354	-31.450	0.525	0.031	0.039	2134.000
3.527	0.737	-31.810	0.538	0.033	0.032	2134.000
3.771	0.886	-31.838	0.546	0.046	0.059	2890.000
3.291	0.059	-31.470	0.536	0.069	0.048	2890.000
1.743	0.844	-32.701	0.552	0.045	0.050	3626.000
3.989	0.239	-32.561	0.547	0.110	0.047	3997.000
1.128	0.585	-32.231	0.553	0.080	0.056	4574.000
2.683	0.551	-30.644	0.533	0.116	0.039	5230.000
2.065	0.615	-31.966	0.543	0.111	0.058	5611.000
3.346	0.538	-32.047	0.542	0.151	0.050	5611.000
3.798	0.874	-33.013	0.555	0.189	0.050	5611.000
3.482	0.713	-33.730	0.563	0.198	0.046	6629.000
3.254	0.296	-31.553	0.540	0.189	0.039	6736.000
3.046	0.360	-30.735	0.540	0.174	0.054	7161.000
3.906	0.887	-31.449	0.547	0.190	0.042	7301.000
2.429	0.297	-30.487	0.521	0.189	0.048	7419.000
2.781	0.703	-29.886	0.528	0.187	0.040	7728.000
0.693	-0.186	-30.057	0.506	0.205	0.036	7728.000
4.428	0.219	-28.946	0.510	0.166	0.009	7728.000
-0.420	-0.186	-28.731	0.506	0.155	0.063	7728.000
1.594	0.510	-27.443	0.504	0.244	0.039	7728.000
2.015	0.183	-29.463	0.507	0.176	0.041	8000.000
0.221	0.171	-29.099	0.512	0.096	-0.021	7990.000
1.034	-0.126	-25.854	0.481	0.006	-0.052	7960.000
-0.276	-0.702	-25.068	0.470	0.014	-0.028	7926.000
-2.794	-0.400	-25.423	0.460	0.066	-0.039	7736.000
1.125	0.929	-24.495	0.442	0.020	-0.020	7590.000
-0.849	-0.856	-22.200	0.400	0.004	-0.034	7440.000
-1.772	-0.345	-21.782	0.396	0.010	-0.042	7322.000
-1.612	0.219	-21.150	0.392	-0.019	-0.019	7322.000
-2.029	-0.262	-21.302	0.379	-0.038	-0.020	7322.000
-0.545	-0.022	-19.717	0.372	-0.013	-0.032	6510.000
-1.471	-0.240	-19.348	0.362	-0.043	-0.019	6080.000
-1.431	-0.210	-19.005	0.356	-0.045	-0.034	5867.000
-2.200	-0.164	-18.131	0.347	-0.076	-0.028	5867.000
-1.266	-0.049	-19.332	0.359	-0.055	-0.029	5034.000
-2.024	-0.119	-20.367	0.369	-0.093	-0.028	5034.000
-2.380	0.173	-18.250	0.345	-0.110	-0.033	5034.000
-0.608	-0.139	-17.338	0.331	-0.096	-0.027	3588.000
-0.909	-0.401	-18.515	0.342	-0.108	-0.016	3426.000
-1.529	-0.444	-17.617	0.333	-0.117	-0.021	3426.000
-0.778	-0.433	-17.115	0.331	-0.112	-0.030	3426.000
-1.721	0.184	-16.395	0.333	-0.143	-0.013	3426.000
-1.175	-0.933	-16.678	0.324	-0.122	-0.016	1614.000
-1.751	0.037	-16.203	0.331	-0.160	-0.027	1344.000
-1.805	-0.128	-18.226	0.351	-0.162	-0.021	1081.000
-2.167	0.408	-20.995	0.378	-0.206	-0.030	1081.000
-0.436	0.666	-19.544	0.376	-0.183	-0.037	1081.000
-1.636	0.598	-21.526	0.372	-0.202	-0.025	396.000
-1.627	1.133	-22.634	0.400	-0.185	-0.043	396.000
-7.538	-1.948	-24.845	0.387	-0.126	-0.049	396.000
1.657	0.930	-20.868	0.391	-0.192	-0.046	64.000
-5.156	1.174	-25.578	0.412	-0.203	-0.016	64.000
-2.088	0.853	-23.432	0.400	-0.188	-0.049	64.000
-0.861	0.912	-23.530	0.406	-0.203	-0.015	64.000
-1.422	0.907	-23.994	0.404	-0.207	-0.026	64.000
-0.230	0.943	-23.546	0.402	-0.169	-0.012	1.000
3.085	1.410	-25.976	0.416	-0.033	0.044	10.000
2.479	0.961	-26.315	0.423	-0.113	0.038	10.000
6.596	2.446	-26.976	0.431	-0.173	0.078	10.000
0.482	0.629	-25.541	0.439	-0.027	0.007	365.000
1.644	1.163	-29.031	0.458	-0.067	0.043	365.000
4.066	1.064	-28.676	0.465	-0.021	0.032	365.000
3.889	1.027	-28.477	0.471	-0.047	0.044	959.000
3.107	0.668	-29.035	0.484	-0.020	0.031	959.000
3.043	0.549	-29.496	0.497	-0.024	0.054	959.000
2.798	1.188	-29.548	0.516	-0.002	0.028	1828.000
2.138	0.758	-30.477	0.522	-0.002	0.053	2043.000
2.494	0.078	-28.940	0.511	0.039	0.040	2301.000
2.498	0.392	-30.562	0.529	0.022	0.057	2301.000
4.040	0.650	-31.673	0.536	0.075	0.044	3461.000
3.413	0.099	-32.270	0.549	0.079	0.054	3923.000
2.713	0.738	-32.002	0.550	0.107	0.043	4192.000
3.597	0.391	-32.930	0.550	0.129	0.050	4526.000
2.845	0.260	-33.371	0.561	0.117	0.060	4526.000
3.621	0.705	-34.179	0.569	0.155	0.033	5718.000
2.594	-0.104	-32.041	0.547	0.145	0.061	6023.000
3.245	0.574	-32.129	0.548	0.201	0.037	6236.000
4.082	0.662	-33.665	0.560	0.193	0.056	6236.000
3.407	0.753	-34.282	0.573	0.219	0.050	6964.000
3.414	0.232	-31.454	0.540	0.208	0.043	6964.000
4.090	0.433	-31.855	0.548	0.199	0.056	7407.000
3.579	0.165	-31.420	0.536	0.229	0.042	7550.000
3.673	0.154	-31.126	0.532	0.237	0.042	7646.000
-1.062	-0.642	-30.750	0.529	0.341	0.041	7646.000
7.474	2.337	-30.766	0.546	0.200	0.076	7936.000
2.632	-0.107	-32.327	0.543	0.252	0.016	7936.000
2.410	0.295	-29.649	0.522	0.189	0.007	8000.000
-1.125	-0.335	-28.617	0.524	0.071	-0.011	7992.000
-1.745	-0.042	-25.734	0.496	0.043	-0.041	7932.000
-2.329	-0.391	-27.446	0.467	0.018	0.007	7917.000
-4.115	-0.659	-24.837	0.449	0.054	-0.043	7917.000
-1.076	0.076	-23.300	0.444	0.025	-0.056	7664.000
-2.694	-0.249	-23.297	0.418	-0.003	-0.003	7664.000
-2.356	-0.198	-22.228	0.404	-0.019	-0.036	7664.000
-1.297	-0.312	-21.019	0.395	-0.013	-0.043	6982.000
-1.322	-0.097	-20.776	0.372	-0.018	-0.007	6982.000
-1.849	-0.191	-19.725	0.366	-0.031	-0.038	6982.000
-1.055	-0.428	-19.086	0.357	-0.035	-0.025	6982.000
-1.669	-0.070	-18.662	0.351	-0.049	-0.015	5668.000
-1.875	-0.385	-18.346	0.340	-0.049	-0.031	5275.000
-1.961	0.358	-18.401	0.347	-0.093	-0.016	5275.000
-1.067	-0.261	-17.186	0.326	-0.051	-0.030	4316.000
-0.339	-0.283	-17.048	0.321	-0.069	-0.018	4148.000
-2.763	0.364	-16.775	0.323	-0.121	-0.042	4148.000
-0.092	-0.406	-16.286	0.312	-0.088	-0.016	4148.000
-2.427	-0.707	-15.932	0.317	-0.137	-0.015	2597.000
0.583	-0.582	-16.122	0.322	-0.101	-0.024	2460.000
-2.029	-0.347	-16.296	0.316	-0.131	-0.015	2460.000
-1.087	-0.756	-15.419	0.308	-0.121	-0.008	2460.000
-1.823	-0.472	-15.519	0.309	-0.144	-0.023	1149.000
-0.811	-0.034	-15.893	0.316	-0.144	-0.019	891.000
-1.758	-0.247	-18.250	0.336	-0.150	-0.028	665.000
-0.718	0.363	-17.408	0.349	-0.174	-0.033	508.000
-1.397	-0.411	-19.172	0.350	-0.193	-0.023	354.000
-2.412	-0.055	-22.487	0.379	-0.214	-0.043	259.000
-7.328	-3.385	-25.188	0.373	-0.062	-0.042	185.000
-1.382	2.617	-20.975	0.388	-0.284	-0.021	185.000
-2.604	-0.109	-21.705	0.381	-0.184	-0.055	185.000
-1.056	0.447	-20.977	0.375	-0.182	-0.001	1.000
2.800	0.842	-24.342	0.396	-0.040	0.023	1.000
3.233	1.473	-24.944	0.402	0.002	0.021	1.000
7.832	2.313	-23.581	0.408	-0.122	0.054	197.000
0.279	-0.015	-24.149	0.408	-0.007	0.023	281.000
1.800	1.235	-25.300	0.438	-0.084	0.022	425.000
0.948	0.130	-26.520	0.439	-0.072	0.034	425.000
2.845	1.236	-25.690	0.454	-0.065	0.032	425.000
2.576	0.367	-27.682	0.457	-0.042	0.044	1044.000
3.649	1.034	-28.840	0.488	-0.031	0.046	1389.000
3.421	0.433	-28.883	0.492	0.009	0.037	1389.000
3.556	0.292	-28.990	0.500	0.014	0.039	1389.000
3.167	0.258	-29.538	0.514	0.035	0.051	1389.000
3.671	-0.182	-28.951	0.512	0.060	0.044	2880.000
3.775	-0.030	-30.588	0.522	0.064	0.051	3311.000
2.157	0.445	-31.602	0.539	0.050	0.058	3311.000
4.044	0.404	-31.721	0.544	0.105	0.036	3311.000
1.590	0.471	-32.196	0.551	0.089	0.056	4480.000
3.470	0.613	-33.269	0.563	0.141	0.050	4480.000
2.883	0.653	-34.067	0.568	0.137	0.049	4480.000
3.825	0.541	-34.528	0.572	0.176	0.061	5890.000
3.826	0.929	-34.795	0.575	0.201	0.044	5890.000
3.861	0.834	-35.009	0.580	0.211	0.060	5890.000
3.532	0.642	-35.688	0.586	0.223	0.045	5890.000
4.460	1.051	-35.561	0.593	0.208	0.063	7051.000
4.209	0.788	-34.820	0.580	0.214	0.059	7275.000
2.827	1.087	-35.404	0.589	0.230	0.046	7275.000
3.220	1.191	-33.929	0.584	0.227	0.052	7657.000
0.453	-0.435	-34.186	0.557	0.242	0.050	7657.000
4.806	0.400	-31.409	0.546	0.183	0.008	7921.000
1.160	0.015	-30.599	0.538	0.147	0.081	7960.000
1.750	0.079	-28.348	0.522	0.256	0.040	7985.000
1.769	0.102	-29.782	0.525	0.178	0.043	7985.000
3.237	-0.018	-29.866	0.524	0.194	0.025	8000.000
0.633	-0.528	-26.865	0.509	0.116	0.001	7997.000
-4.927	-0.786	-26.301	0.507	-0.054	-0.050	7978.000
-2.598	0.375	-24.914	0.485	-0.085	-0.051	7902.000
0.699	-0.391	-23.826	0.462	-0.116	-0.015	7830.000
-6.821	-0.676	-23.182	0.426	-0.032	-0.023	7733.000
-0.887	-0.354	-21.724	0.415	-0.065	-0.044	7733.000
-1.676	-0.485	-21.255	0.398	-0.032	-0.012	7248.000
-1.892	0.166	-20.852	0.390	0.003	-0.024	7248.000
-1.408	-0.432	-20.834	0.378	-0.018	-0.041	7248.000
-1.050	-0.114	-20.102	0.373	-0.008	-0.023	6619.000
-1.579	-0.321	-19.870	0.368	-0.039	-0.024	6619.000
-0.510	-0.269	-19.377	0.358	-0.030	-0.034	6619.000
-1.287	-0.459	-18.642	0.346	-0.037	-0.020	5383.000
-1.218	-0.137	-17.993	0.341	-0.057	-0.043	5014.000
-1.715	0.030	-19.065	0.346	-0.088	-0.024	4749.000
-1.449	-0.003	-18.034	0.333	-0.063	-0.037	4151.000
0.292	0.149	-18.300	0.344	-0.062	-0.018	4151.000
-1.903	-0.276	-17.997	0.329	-0.126	-0.018	4151.000
-0.029	-0.297	-17.123	0.327	-0.080	-0.018	2877.000
-2.461	-0.415	-18.366	0.343	-0.137	-0.024	2326.000
0.012	-0.424	-17.256	0.329	-0.090	-0.016	2326.000
-0.683	-0.734	-17.039	0.325	-0.127	-0.022	2326.000
-0.120	-0.223	-16.817	0.324	-0.094	-0.021	2326.000
-0.602	-0.571	-16.792	0.320	-0.127	-0.020	982.000
-0.916	-0.127	-16.433	0.327	-0.149	-0.019	770.000
-1.910	-0.212	-19.423	0.356	-0.178	-0.031	644.000
-2.286	0.359	-19.799	0.363	-0.187	-0.034	644.000
-2.173	-0.537	-20.295	0.359	-0.194	-0.015	644.000
-3.657	1.944	-18.433	0.361	-0.195	-0.023	159.000
-3.922	-0.768	-23.223	0.389	-0.148	-0.062	52.000
-1.042	-0.052	-23.513	0.394	-0.221	-0.011	9.000
-0.399	1.520	-22.925	0.395	-0.233	-0.026	9.000
-1.140	0.625	-23.527	0.394	-0.198	-0.011	9.000
-0.624	0.829	-22.651	0.392	-0.204	-0.025	9.000
-0.567	1.500	-25.559	0.412	-0.175	-0.013	8.000
2.991	1.472	-25.804	0.408	-0.039	0.037	36.000
1.799	0.988	-26.444	0.429	-0.130	0.037	36.000
5.937	2.078	-27.204	0.431	-0.174	0.079	169.000
0.490	1.701	-27.135	0.454	-0.040	-0.006	247.000
1.119	1.012	-28.763	0.454	-0.054	0.041	247.000
4.172	1.267	-28.163	0.464	-0.030	0.031	694.000
4.130	0.890	-28.673	0.471	-0.054	0.041	851.000
3.043	1.256	-29.832	0.495	-0.025	0.026	851.000
2.545	0.342	-29.465	0.499	-0.016	0.047	851.000
3.123	1.008	-30.592	0.517	-0.014	0.024	1733.000
2.351	0.383	-30.303	0.524	0.008	0.057	1733.000
3.135	0.213	-31.565	0.533	0.042	0.055	2569.000
3.793	0.690	-32.148	0.546	0.023	0.064	2777.000
4.107	1.116	-31.853	0.546	0.083	0.046	3214.000
4.148	0.131	-32.525	0.544	0.077	0.051	3214.000
3.095	0.596	-32.918	0.559	0.114	0.041	3214.000
5.090	0.796	-34.084	0.564	0.135	0.030	4809.000
1.868	0.589	-34.041	0.568	0.120	0.071	4809.000
3.180	0.729	-34.722	0.576	0.156	0.043	4809.000
2.688	0.558	-35.232	0.579	0.164	0.041	6040.000
3.601	1.049	-35.328	0.582	0.204	0.055	6040.000
3.982	0.803	-35.678	0.586	0.205	0.051	6040.000
3.402	0.948	-36.163	0.593	0.223	0.043	6876.000
3.432	0.785	-36.140	0.595	0.244	0.060	6876.000
4.264	0.808	-35.393	0.594	0.225	0.058	7405.000
4.038	0.726	-36.028	0.592	0.258	0.052	7461.000
4.396	0.616	-36.725	0.595	0.265	0.052	7461.000
-0.312	1.012	-33.331	0.596	0.331	0.043	7461.000
8.636	1.981	-33.063	0.577	0.212	0.078	7916.000
2.437	-0.456	-31.827	0.547	0.247	0.011	7984.000
3.397	0.436	-31.368	0.554	0.204	0.007	7984.000
3.467	0.249	-32.015	0.552	0.218	0.029	8000.000
1.560	-0.459	-27.393	0.520	0.156	0.018	8000.000
-5.130	-0.497	-30.389	0.539	-0.051	-0.061	8000.000
-0.055	0.045	-28.109	0.510	0.034	-0.023	7892.000
3.108	0.270	-26.103	0.475	-0.044	0.009	7818.000
-3.418	-0.474	-26.329	0.457	0.044	-0.056	7818.000
-2.288	-0.071	-24.660	0.448	-0.003	-0.017	7818.000
-2.368	0.374	-24.090	0.439	-0.026	-0.032	7322.000
-1.191	-0.213	-22.009	0.414	-0.026	-0.036	7095.000
-1.315	-0.451	-21.928	0.389	-0.015	-0.014	6940.000
-1.934	0.069	-20.657	0.386	-0.026	-0.032	6940.000
-1.557	-0.085	-20.628	0.376	-0.037	-0.025	6940.000
-1.434	-0.051	-19.596	0.366	-0.041	-0.024	5850.000
-1.482	-0.209	-19.083	0.354	-0.052	-0.028	5560.000
-1.899	-0.242	-18.714	0.345	-0.085	-0.003	5560.000
-1.815	-0.533	-18.248	0.334	-0.068	-0.031	5560.000
-1.343	-0.464	-17.555	0.326	-0.064	-0.008	4222.000
-1.519	0.271	-17.202	0.323	-0.106	-0.043	3675.000
-1.767	-0.698	-17.185	0.319	-0.101	-0.015	3378.000
-0.654	-0.217	-16.666	0.323	-0.116	-0.020	3378.000
-1.538	-0.389	-16.170	0.323	-0.127	-0.029	3378.000
-0.748	-0.138	-16.309	0.317	-0.137	0.009	1994.000
-1.934	-0.175	-16.243	0.324	-0.148	-0.024	1874.000
-0.998	-0.071	-15.996	0.320	-0.156	-0.030	1874.000
-1.680	-0.191	-16.305	0.319	-0.144	-0.009	1874.000
-1.337	-0.344	-16.926	0.321	-0.146	-0.027	812.000
-0.956	-0.044	-17.550	0.343	-0.160	-0.022	579.000
-2.036	0.064	-19.065	0.358	-0.191	-0.031	579.000
-1.666	-0.251	-18.719	0.352	-0.188	-0.035	579.000
-2.739	0.796	-19.639	0.349	-0.201	-0.020	135.000
-3.346	-0.862	-20.858	0.373	-0.207	-0.048	81.000
-4.472	-0.435	-24.362	0.390	-0.235	-0.039	81.000
0.178	0.762	-23.475	0.397	-0.214	-0.019	81.000
-1.351	1.076	-23.337	0.399	-0.218	-0.029	0.000
-0.723	1.016	-23.882	0.397	-0.207	-0.028	0.000
3.976	1.682	-27.013	0.416	-0.061	0.042	3.000
5.454	1.553	-26.362	0.420	-0.078	0.044	3.000
-0.200	0.596	-26.538	0.426	0.015	0.014	200.000
4.643	2.112	-25.968	0.433	-0.044	0.040	230.000
2.295	2.230	-28.128	0.453	-0.054	0.030	364.000
2.448	1.285	-27.093	0.458	-0.083	0.044	364.000
1.731	0.728	-28.455	0.467	-0.068	0.043	834.000
3.043	0.905	-28.490	0.485	-0.047	0.028	834.000
2.971	0.673	-29.284	0.494	-0.019	0.039	834.000
3.494	0.643	-29.613	0.508	-0.010	0.045	1689.000
3.484	0.575	-30.506	0.518	0.010	0.038	1689.000
3.800	0.658	-30.791	0.527	0.023	0.068	1689.000
3.279	1.080	-32.053	0.544	0.059	0.030	1689.000
3.753	1.135	-32.424	0.549	0.060	0.064	3070.000
2.953	0.790	-33.598	0.561	0.063	0.048	3551.000
4.000	1.129	-34.009	0.571	0.119	0.034	3551.000
1.631	1.300	-34.757	0.580	0.077	0.055	3551.000
3.895	0.730	-33.893	0.572	0.186	0.020	5070.000
2.773	0.737	-35.420	0.580	0.130	0.017	5196.000
4.124	1.181	-36.117	0.593	0.176	0.081	5196.000
3.177	0.468	-34.702	0.582	0.176	0.022	6279.000
2.288	0.858	-34.881	0.582	0.174	0.062	6279.000
3.418	1.236	-35.850	0.593	0.205	0.051	6279.000
2.716	1.032	-36.308	0.599	0.225	0.057	7135.000
2.359	0.966	-35.376	0.593	0.250	0.050	7342.000
3.455	0.711	-33.203	0.562	0.209	0.037	7342.000
2.599	0.756	-32.342	0.557	0.217	0.039	7342.000
3.572	0.497	-31.431	0.557	0.250	0.043	7775.000
1.461	-0.911	-33.569	0.550	0.231	0.077	7846.000
-0.797	1.219	-30.229	0.539	0.222	0.005	7970.000
3.195	-0.319	-29.783	0.516	0.201	0.042	7997.000
1.382	-0.639	-26.625	0.503	0.194	0.032	7997.000
2.073	-0.532	-28.240	0.510	0.195	0.028	7997.000
2.575	-0.399	-27.679	0.510	0.180	0.031	8000.000
1.166	-0.410	-27.467	0.511	0.149	0.013	7999.000
-3.515	-0.987	-25.853	0.495	-0.048	-0.055	7999.000
-2.632	-0.706	-26.322	0.466	0.032	0.000	7999.000
-3.157	0.267	-23.941	0.454	0.015	-0.021	7799.000
-2.759	-0.212	-24.199	0.447	0.004	-0.063	7672.000
-3.027	-0.242	-23.326	0.411	-0.012	0.012	7501.000
-2.906	0.110	-21.556	0.400	-0.008	-0.052	7501.000
-0.922	-0.182	-21.132	0.392	-0.031	-0.037	7501.000
-1.253	-0.024	-21.095	0.381	-0.003	-0.006	6795.000
-1.323	-0.443	-19.931	0.368	-0.025	-0.040	6675.000
-1.531	-0.394	-19.566	0.363	-0.019	-0.026	6675.000
-1.341	-0.214	-19.039	0.358	-0.020	-0.022	6675.000
-1.293	-0.555	-18.405	0.349	-0.034	-0.034	5435.000
-1.720	-0.217	-18.236	0.342	-0.073	-0.028	5058.000
-1.650	-0.238	-17.931	0.336	-0.071	-0.023	4525.000
-0.349	0.124	-17.089	0.331	-0.062	-0.042	4525.000
-0.758	-0.322	-17.917	0.318	-0.101	-0.017	4525.000
-2.418	-0.442	-17.174	0.321	-0.090	-0.025	3133.000
-0.908	-0.041	-17.750	0.333	-0.122	-0.027	2961.000
-1.905	-0.014	-17.688	0.349	-0.137	-0.024	2961.000
-0.943	-0.645	-17.254	0.326	-0.104	-0.038	2074.000
-2.214	-0.267	-16.797	0.335	-0.139	-0.037	2074.000
-1.132	0.217	-16.761	0.326	-0.139	-0.013	2074.000
-1.189	0.022	-16.903	0.323	-0.150	-0.026	2074.000
-1.164	-0.135	-16.862	0.320	-0.142	-0.025	2074.000
-0.237	0.041	-15.934	0.318	-0.150	-0.014	2074.000
-1.380	-0.157	-16.390	0.315	-0.162	-0.020	409.000
-3.312	-0.383	-17.243	0.332	-0.153	-0.034	317.000
-2.579	-1.709	-17.402	0.323	-0.167	-0.028	317.000
0.989	-0.424	-15.765	0.342	-0.198	-0.035	317.000
-3.160	-0.993	-20.012	0.335	-0.178	0.003	24.000
-2.017	0.242	-19.610	0.355	-0.157	-0.041	3.000
0.016	1.519	-22.600	0.380	-0.192	-0.024	3.000
-1.049	1.092	-23.185	0.374	-0.176	-0.021	3.000
-0.075	1.210	-23.015	0.375	-0.183	-0.017	2.000
3.197	1.590	-25.079	0.392	-0.039	0.034	22.000
3.413	1.323	-25.861	0.411	-0.008	0.017	22.000
7.740	2.810	-23.259	0.422	-0.110	0.041	22.000
0.069	-0.126	-25.723	0.419	-0.003	0.034	328.000
2.122	0.977	-25.622	0.445	-0.089	0.014	468.000
1.089	0.610	-27.898	0.454	-0.088	0.044	580.000
2.711	1.336	-26.831	0.467	-0.071	0.027	580.000
2.394	0.632	-28.332	0.473	-0.038	0.039	580.000
3.673	0.749	-28.059	0.485	-0.023	0.041	1383.000
3.527	0.912	-29.833	0.507	0.013	0.033	1610.000
4.013	0.350	-29.875	0.514	0.027	0.042	1610.000
3.547	0.489	-30.864	0.527	0.033	0.018	1610.000
4.162	0.632	-30.887	0.536	0.069	0.074	2831.000
4.077	0.296	-31.847	0.538	0.078	0.048	3167.000
2.812	1.229	-32.679	0.555	0.057	0.030	3730.000
4.416	-0.029	-32.113	0.544	0.103	0.068	4272.000
1.763	0.525	-31.832	0.553	0.086	0.044	4728.000
3.244	0.069	-31.532	0.541	0.130	0.037	5003.000
2.356	0.714	-33.196	0.562	0.132	0.085	5003.000
3.435	0.705	-33.754	0.566	0.164	0.023	5003.000
3.797	0.298	-32.956	0.555	0.174	0.061	6350.000
3.061	0.671	-32.918	0.562	0.187	0.052	6514.000
3.014	-0.402	-30.568	0.526	0.180	0.029	6794.000
2.967	0.168	-29.618	0.530	0.166	0.055	6794.000
3.639	0.694	-30.789	0.537	0.196	0.034	7296.000
2.747	-0.150	-29.445	0.503	0.172	0.053	7296.000
2.574	0.132	-28.779	0.512	0.194	0.043	7296.000
1.949	0.792	-31.159	0.513	0.199	0.048	7296.000
4.306	0.541	-28.973	0.523	0.206	0.008	7296.000
2.493	-0.023	-29.552	0.516	0.117	0.068	7973.000
1.498	-0.145	-27.523	0.497	0.247	0.039	7992.000
1.527	0.043	-28.037	0.501	0.173	0.036	7992.000
2.857	0.057	-28.675	0.505	0.191	0.025	7992.000
1.654	-0.579	-25.582	0.482	0.175	0.027	8000.000
-1.596	-0.991	-23.761	0.478	-0.034	-0.048	7983.000
-0.732	-0.224	-24.186	0.460	-0.053	0.003	7899.000
-1.688	-0.557	-24.573	0.444	0.031	-0.039	7813.000
-2.777	-1.103	-21.209	0.401	0.026	-0.041	7785.000
-0.604	-0.304	-21.407	0.400	0.007	-0.009	7785.000
-0.950	-0.364	-22.194	0.388	-0.013	-0.031	7785.000
-1.905	-0.480	-20.445	0.372	-0.014	-0.025	7138.000
-1.875	-0.428	-18.953	0.368	-0.034	-0.015	7072.000
-1.769	-0.458	-18.724	0.349	-0.022	-0.035	6602.000
-2.199	-0.342	-18.206	0.353	-0.055	-0.025	6602.000
-2.051	-0.265	-18.170	0.346	-0.065	-0.010	5860.000
-2.381	-0.766	-17.989	0.335	-0.084	-0.027	5860.000
-1.924	0.161	-16.645	0.331	-0.061	-0.031	5860.000
-1.335	0.194	-16.823	0.323	-0.074	-0.017	5860.000
-2.373	-0.109	-16.244	0.317	-0.093	-0.048	5860.000
-2.413	-0.191	-15.222	0.308	-0.108	-0.003	3746.000
-0.031	-0.190	-15.366	0.301	-0.063	-0.039	3331.000
-2.074	-0.423	-15.158	0.304	-0.125	-0.018	2788.000
-0.314	-0.329	-15.783	0.310	-0.077	-0.011	2531.000
-3.074	-0.144	-17.700	0.343	-0.163	-0.051	2531.000
-0.659	-0.183	-17.356	0.340	-0.112	-0.026	2531.000
-2.224	-0.258	-15.880	0.327	-0.136	-0.016	1366.000
-0.966	-0.086	-18.461	0.359	-0.157	-0.036	1211.000
-1.860	0.012	-18.518	0.348	-0.170	-0.026	1211.000
-2.199	-0.947	-18.025	0.336	-0.157	-0.009	1211.000
-1.471	-0.440	-17.146	0.332	-0.143	-0.037	435.000
-2.725	-0.748	-18.460	0.334	-0.166	-0.019	343.000
0.778	1.178	-19.868	0.368	-0.214	-0.032	172.000
-4.365	-1.993	-23.148	0.363	-0.163	-0.002	103.000
1.455	0.586	-22.745	0.390	-0.218	-0.036	103.000
-3.092	0.865	-23.438	0.393	-0.207	-0.005	103.000
-1.922	0.669	-23.574	0.395	-0.175	-0.044	0.000
2.289	1.154	-25.234	0.405	-0.104	0.016	0.000
2.928	1.264	-25.338	0.413	-0.030	0.039	0.000
1.192	1.155	-25.728	0.416	-0.021	0.030	136.000
4.949	3.482	-24.207	0.447	-0.088	-0.018	181.000
0.037	1.760	-27.463	0.449	-0.114	0.045	181.000
2.510	1.988	-27.079	0.458	-0.072	0.020	181.000
3.126	0.770	-27.558	0.458	-0.073	0.046	795.000
2.843	1.112	-26.739	0.457	-0.022	0.038	992.000
3.341	0.709	-28.841	0.483	-0.024	0.035	1250.000
3.738	0.692	-28.950	0.493	-0.001	0.049	1434.000
3.763	0.564	-29.338	0.506	0.017	0.017	1434.000
3.711	0.511	-29.758	0.519	0.037	0.026	1434.000
4.128	0.392	-30.883	0.522	0.022	0.086	2715.000
3.692	0.799	-30.437	0.533	0.078	0.019	3126.000
3.953	0.218	-30.609	0.528	0.074	0.049	3126.000
1.986	0.095	-31.290	0.538	0.069	0.061	3126.000
3.490	0.606	-31.921	0.548	0.103	0.042	3126.000
1.412	0.259	-32.749	0.554	0.072	0.043	4998.000
2.948	0.421	-33.255	0.563	0.154	0.053	5118.000
2.825	0.464	-31.631	0.544	0.143	0.051	5118.000
3.428	0.476	-31.953	0.545	0.182	0.044	5118.000
4.258	0.599	-33.260	0.557	0.197	0.047	6387.000
3.424	0.268	-31.307	0.539	0.201	0.041	6610.000
3.508	-0.142	-32.455	0.552	0.208	0.050	6610.000
3.818	0.710	-33.634	0.565	0.215	0.060	7285.000
3.137	0.900	-34.496	0.572	0.222	0.045	7420.000
2.832	0.308	-32.187	0.555	0.204	0.045	7420.000
4.117	1.370	-33.033	0.562	0.233	0.028	7785.000
6.752	0.307	-33.394	0.557	0.193	0.093	7785.000
3.185	0.903	-33.396	0.565	0.267	0.053	7785.000
4.413	0.580	-32.980	0.562	0.197	0.045	7996.000
2.189	-0.130	-31.828	0.543	0.192	0.037	8000.000
-1.900	-0.455	-28.445	0.540	0.026	-0.047	7998.000
-4.066	-0.351	-27.894	0.505	-0.067	-0.036	7911.000
-4.087	-0.396	-26.009	0.471	-0.047	-0.050	7869.000
-4.353	-0.878	-22.333	0.432	-0.027	-0.023	7701.000
-2.959	0.400	-21.248	0.411	-0.016	-0.042	7576.000
-1.363	-0.605	-21.217	0.383	-0.026	-0.024	7529.000
-2.239	-0.338	-20.822	0.375	-0.012	-0.004	7529.000
-1.369	-0.374	-19.361	0.370	-0.007	-0.037	7529.000
-1.018	-0.208	-19.267	0.359	-0.024	-0.034	6597.000
-2.451	-0.591	-18.212	0.348	-0.044	-0.016	6489.000
-1.562	-0.391	-18.035	0.348	-0.053	-0.028	6489.000
-1.744	-0.413	-17.769	0.337	-0.051	-0.017	5641.000
-0.628	-0.423	-17.269	0.328	-0.045	-0.028	5212.000
-2.390	-0.777	-17.067	0.317	-0.072	-0.024	4811.000
-1.326	-0.464	-16.978	0.316	-0.066	-0.025	4285.000
-0.080	-0.420	-15.526	0.304	-0.031	-0.040	4285.000
-0.903	-0.422	-16.483	0.301	-0.104	-0.009	4285.000
-0.978	0.071	-14.848	0.305	-0.074	-0.033	2879.000
-1.446	-0.254	-15.264	0.307	-0.105	-0.038	2551.000
-0.884	-0.442	-15.155	0.311	-0.085	-0.026	2318.000
-0.152	-0.672	-15.479	0.298	-0.095	-0.019	2318.000
-0.298	-0.303	-15.142	0.300	-0.089	-0.033	2318.000
-0.681	-0.525	-17.200	0.314	-0.119	-0.022	1125.000
-0.910	-0.144	-17.765	0.335	-0.129	-0.023	900.000
-1.791	-0.227	-17.707	0.337	-0.158	-0.026	900.000
-1.332	-0.434	-16.118	0.334	-0.156	-0.034	900.000
-1.289	0.170	-17.366	0.332	-0.175	-0.021	389.000
-1.419	-1.184	-17.985	0.354	-0.192	-0.026	192.000
-5.274	-2.366	-23.137	0.354	-0.229	0.019	125.000
2.608	2.071	-19.287	0.375	-0.221	-0.044	125.000
-0.419	-0.123	-20.782	0.360	-0.169	-0.005	125.000
-1.382	0.535	-20.676	0.369	-0.185	-0.037	0.000
2.962	1.188	-23.904	0.384	-0.065	0.036	3.000
1.686	1.001	-24.009	0.391	-0.050	0.041	3.000
1.431	0.499	-22.141	0.401	-0.044	-0.000	3.000
3.814	3.348	-25.093	0.412	-0.144	0.048	254.000
1.381	0.354	-24.536	0.423	-0.084	0.025	389.000
2.944	0.521	-26.255	0.428	-0.064	0.059	483.000
1.942	0.519	-26.165	0.438	-0.029	0.043	483.000
3.435	0.786	-25.571	0.449	-0.018	0.032	483.000
2.710	0.432	-26.936	0.464	-0.019	0.036	1330.000
3.085	0.516	-28.122	0.487	0.000	0.042	1485.000
3.658	0.457	-28.564	0.498	-0.000	0.042	1485.000
3.541	0.669	-29.415	0.513	0.026	0.053	1485.000
3.184	0.806	-30.056	0.522	0.033	0.042	2676.000
3.784	0.388	-30.212	0.523	0.050	0.045	2957.000
4.723	0.680	-30.934	0.527	0.080	0.058	3666.000
2.078	0.633	-31.617	0.541	0.051	0.052	3963.000
4.450	0.636	-31.403	0.542	0.125	0.037	4563.000
1.872	0.387	-31.798	0.543	0.091	0.060	4563.000
3.541	0.776	-32.006	0.556	0.142	0.066	4563.000
2.564	0.742	-33.450	0.559	0.157	0.050	5830.000
3.453	0.730	-33.462	0.566	0.176	0.043	6191.000
3.957	0.740	-34.063	0.561	0.213	0.048	6544.000
4.083	0.588	-34.036	0.569	0.200	0.055	6544.000
3.884	0.865	-34.370	0.578	0.225	0.057	7047.000
2.458	0.313	-31.578	0.542	0.232	0.049	7106.000
4.968	0.612	-32.049	0.552	0.182	0.047	7106.000
2.918	0.925	-32.756	0.559	0.228	0.046	7677.000
2.441	-0.115	-32.095	0.547	0.260	0.028	7724.000
-1.690	-0.170	-31.672	0.541	0.261	0.040	7724.000
5.599	1.127	-31.292	0.540	0.227	0.052	7954.000
2.095	0.260	-29.575	0.525	0.183	0.024	7989.000
2.479	0.015	-29.126	0.529	0.203	0.008	8000.000
3.359	-0.090	-29.446	0.523	0.197	0.027	8000.000
2.601	-0.242	-27.987	0.516	0.194	0.032	8000.000
0.263	0.375	-29.452	0.532	0.103	-0.018	7990.000
-1.223	-0.928	-24.811	0.490	0.004	-0.051	7980.000
-1.018	-0.629	-24.749	0.470	-0.016	-0.026	7980.000
2.824	0.744	-25.536	0.468	-0.052	-0.019	7980.000
-2.836	0.449	-25.473	0.460	0.050	-0.041	7592.000
0.050	-0.502	-23.275	0.425	-0.006	-0.016	7431.000
-1.175	-0.145	-23.184	0.411	-0.003	-0.042	7431.000
-1.993	0.120	-21.567	0.406	-0.029	-0.035	7431.000
-2.196	-0.238	-21.589	0.391	-0.045	-0.018	6692.000
-1.924	-0.337	-18.867	0.365	-0.031	-0.033	6540.000
-1.491	0.015	-19.108	0.361	-0.052	-0.032	6348.000
-2.168	-0.244	-18.480	0.349	-0.054	-0.021	6348.000
-1.917	-0.151	-17.745	0.338	-0.060	-0.038	5378.000
-1.095	-0.381	-17.073	0.326	-0.038	-0.026	4970.000
-2.817	-0.732	-17.351	0.320	-0.080	-0.019	4704.000
-2.117	0.130	-16.101	0.316	-0.103	-0.034	4704.000
-0.708	-0.306	-15.847	0.306	-0.072	-0.025	4704.000
-1.447	-0.032	-17.071	0.326	-0.109	-0.023	2956.000
-1.044	-0.782	-16.030	0.313	-0.101	-0.023	2679.000
-1.082	-0.723	-15.733	0.310	-0.120	-0.017	2679.000
-1.358	-0.520	-14.829	0.309	-0.131	-0.011	2679.000
-1.057	-0.302	-15.601	0.308	-0.117	-0.009	1498.000
-1.770	-0.006	-16.550	0.333	-0.155	-0.034	1345.000
-1.693	-0.508	-18.120	0.341	-0.167	-0.014	1345.000
-1.457	0.194	-16.689	0.336	-0.179	-0.024	1345.000
-1.264	-0.505	-16.710	0.327	-0.142	-0.034	562.000
-1.064	-0.097	-18.078	0.337	-0.186	-0.022	413.000
-1.741	1.082	-17.525	0.339	-0.150	-0.026	325.000
-3.266	0.870	-17.595	0.329	-0.205	-0.017	129.000
1.867	0.670	-19.535	0.350	-0.159	-0.033	52.000
-2.054	0.944	-20.776	0.363	-0.212	-0.010	37.000
-0.987	0.909	-20.698	0.370	-0.184	-0.015	37.000
-1.682	0.121	-20.817	0.367	-0.172	-0.032	37.000
-0.073	0.706	-20.553	0.363	-0.143	-0.000	1.000
2.405	0.793	-21.863	0.369	-0.053	0.039	42.000
1.297	0.716	-22.905	0.403	-0.090	0.028	91.000
5.003	2.396	-22.172	0.413	-0.102	-0.011	91.000
0.927	-1.400	-27.655	0.393	-0.046	0.072	311.000
3.940	1.971	-24.320	0.431	-0.032	0.015	464.000
3.143	0.901	-26.114	0.433	-0.048	0.043	464.000
2.464	0.951	-24.946	0.448	-0.045	0.025	959.000
2.623	0.323	-27.448	0.467	-0.040	0.039	1144.000
2.571	0.678	-27.936	0.480	-0.036	0.047	1482.000
2.694	0.356	-28.002	0.492	-0.025	0.048	1795.000
3.068	-0.018	-26.827	0.488	0.002	0.043	2092.000
3.032	0.279	-28.776	0.506	0.019	0.044	2092.000
2.642	0.048	-29.241	0.515	0.059	0.039	2092.000
3.274	0.540	-30.205	0.525	0.056	0.045	3197.000
3.923	0.397	-30.972	0.529	0.130	0.046	3717.000
2.725	0.905	-31.223	0.535	0.069	0.055	4476.000
4.273	0.507	-31.622	0.540	0.148	0.022	4476.000
3.494	0.748	-32.437	0.552	0.151	0.033	4476.000
2.685	0.728	-32.579	0.553	0.166	0.053	4476.000
2.479	0.808	-32.941	0.553	0.142	0.037	6088.000
2.250	0.403	-31.805	0.541	0.137	0.055	6314.000
2.509	0.711	-32.176	0.557	0.167	0.046	6314.000
2.312	0.769	-33.602	0.565	0.182	0.050	6314.000
3.153	0.424	-33.011	0.560	0.175	0.053	7160.000
2.915	0.342	-29.852	0.541	0.191	0.035	7434.000
2.195	0.520	-31.548	0.533	0.216	0.045	7480.000
3.501	0.269	-31.337	0.536	0.196	0.043	7480.000
1.827	0.275	-32.502	0.540	0.189	0.055	7480.000
1.619	0.678	-27.529	0.520	0.290	-0.004	7480.000
4.331	0.060	-30.194	0.520	0.208	0.093	7480.000
2.512	0.380	-29.967	0.524	0.215	0.028	8000.000
-1.482	-0.217	-28.297	0.521	0.059	-0.023	7988.000
-1.158	-0.089	-28.605	0.507	-0.004	-0.026	7957.000
-0.616	-0.681	-26.025	0.459	0.010	-0.021	7957.000
-4.328	-1.144	-24.463	0.437	0.061	-0.038	7779.000
0.413	0.753	-20.923	0.412	0.003	-0.037	7577.000
-2.653	-1.009	-21.822	0.385	-0.001	-0.012	7532.000
-2.231	-0.384	-20.167	0.377	-0.003	-0.037	7532.000
-1.160	-0.377	-19.664	0.368	-0.011	-0.031	7532.000
-1.399	-0.577	-19.714	0.359	-0.010	-0.012	7532.000
-1.431	-0.111	-18.776	0.358	-0.031	-0.035	7532.000
-1.125	-0.609	-18.263	0.345	-0.005	-0.026	7532.000
-1.184	-0.403	-18.092	0.340	-0.040	-0.013	5710.000
-1.214	-0.334	-17.470	0.326	-0.035	-0.032	5299.000
-2.095	-0.222	-16.937	0.321	-0.086	0.002	5299.000
-0.683	-0.478	-16.677	0.315	-0.044	-0.030	4332.000
0.002	-0.291	-16.124	0.305	-0.064	-0.021	4196.000
-2.723	0.265	-16.313	0.309	-0.116	-0.021	4196.000
-0.156	-0.807	-15.372	0.300	-0.084	-0.025	2970.000
-2.548	-0.658	-16.666	0.322	-0.129	-0.012	2497.000
0.277	-0.735	-15.579	0.303	-0.110	-0.008	2497.000
-2.122	-0.085	-15.413	0.309	-0.134	-0.026	2497.000
-1.021	-0.705	-14.932	0.300	-0.126	-0.005	1518.000
-2.193	-0.035	-17.168	0.329	-0.158	-0.017	1265.000
-1.211	-0.217	-18.031	0.337	-0.163	-0.025	1091.000
-1.669	-0.676	-17.275	0.325	-0.149	-0.015	1091.000
-0.464	0.345	-15.561	0.323	-0.171	-0.025	521.000
-0.880	-0.077	-18.306	0.332	-0.181	-0.022	348.000
-1.409	0.310	-18.389	0.347	-0.165	-0.041	304.000
-3.235	-3.204	-21.576	0.332	-0.066	-0.020	304.000
-2.149	0.796	-17.554	0.345	-0.230	-0.013	304.000
-0.148	-0.594	-18.449	0.337	-0.180	-0.031	7.000
-1.454	0.849	-21.026	0.362	-0.167	-0.011	0.000
2.397	0.955	-21.955	0.357	-0.030	0.035	7.000
2.084	0.331	-21.239	0.370	-0.083	0.036	7.000
3.461	1.158	-21.814	0.380	-0.153	0.056	7.000
-1.505	-2.397	-22.928	0.393	0.021	0.026	238.000
4.654	2.579	-25.152	0.425	-0.097	0.046	407.000
3.289	0.656	-25.915	0.426	-0.016	0.026	407.000
3.858	0.696	-25.050	0.434	-0.032	0.023	407.000
2.808	0.636	-25.933	0.444	-0.033	0.030	978.000
3.103	0.889	-26.740	0.471	-0.037	0.037	1287.000
2.472	0.425	-27.449	0.484	-0.018	0.034	1390.000
2.873	0.586	-27.988	0.497	-0.007	0.056	1390.000
2.528	0.381	-28.697	0.508	0.026	0.045	1390.000
3.249	0.644	-29.313	0.516	0.044	0.034	2733.000
2.122	0.527	-30.689	0.527	0.041	0.054	3124.000
4.362	0.883	-31.412	0.539	0.101	0.046	3124.000
2.017	0.903	-32.728	0.552	0.071	0.038	4014.000
4.490	0.426	-33.030	0.552	0.152	0.049	4569.000
2.885	1.001	-33.113	0.568	0.147	0.064	4697.000
3.940	1.055	-34.478	0.572	0.153	0.034	4697.000
3.452	0.838	-35.054	0.578	0.146	0.052	4697.000
2.256	0.627	-34.363	0.576	0.179	0.048	6194.000
3.178	0.518	-32.836	0.561	0.190	0.048	6546.000
2.884	1.053	-34.286	0.582	0.194	0.057	6546.000
3.352	1.144	-35.748	0.587	0.207	0.039	6546.000
4.079	0.671	-35.826	0.589	0.225	0.050	7267.000
2.563	0.632	-33.967	0.572	0.249	0.051	7478.000
3.167	0.739	-33.402	0.569	0.237	0.040	7579.000
4.017	1.044	-34.639	0.579	0.223	0.086	7579.000
6.655	1.337	-35.724	0.581	0.158	0.059	7579.000
4.111	-0.013	-33.448	0.552	0.287	0.032	7963.000
3.120	-0.319	-29.342	0.529	0.229	0.005	7987.000
3.661	-0.153	-30.246	0.528	0.186	0.037	7987.000
2.680	-0.244	-28.320	0.524	0.189	0.024	7987.000
2.271	-0.540	-27.506	0.517	0.198	0.032	8000.000
-2.199	-0.878	-27.193	0.515	-0.021	-0.042	7988.000
-4.358	-0.152	-25.391	0.468	-0.081	-0.066	7924.000
-1.999	-0.708	-21.872	0.438	-0.091	-0.047	7846.000
-6.898	-0.941	-21.305	0.414	-0.015	-0.023	7846.000
-2.518	0.678	-22.267	0.410	-0.058	-0.048	7846.000
-2.354	-0.486	-22.080	0.398	-0.019	-0.020	7336.000
-2.242	-0.713	-19.721	0.366	0.009	-0.016	7336.000
-1.618	-0.060	-19.081	0.367	-0.009	-0.040	6924.000
-0.933	-0.584	-19.018	0.351	-0.020	-0.025	6924.000
-2.238	-0.436	-18.579	0.352	-0.048	-0.020	6924.000
-1.641	-0.091	-18.188	0.346	-0.059	-0.031	6924.000
-2.140	-0.345	-17.543	0.335	-0.049	-0.020	6924.000
-0.818	-0.665	-17.056	0.325	-0.056	-0.027	5129.000
-1.799	-0.196	-17.002	0.317	-0.075	-0.020	5129.000
-2.080	-0.804	-16.145	0.307	-0.071	-0.015	5129.000
-0.163	-0.121	-15.321	0.302	-0.045	-0.041	5129.000
-0.457	-0.422	-16.383	0.301	-0.096	-0.007	3431.000
-1.352	0.230	-16.200	0.324	-0.091	-0.038	3083.000
-1.246	-0.289	-16.854	0.326	-0.114	-0.043	3083.000
-1.441	-0.407	-14.954	0.316	-0.104	-0.011	3083.000
0.038	-0.569	-15.617	0.303	-0.102	-0.021	1746.000
-0.597	-0.339	-17.028	0.327	-0.118	-0.038	1456.000
-0.182	-0.460	-17.947	0.339	-0.118	-0.017	1281.000
-1.575	-0.148	-16.934	0.333	-0.132	-0.026	1281.000
-1.627	-0.681	-16.202	0.321	-0.144	-0.022	1281.000
-0.971	0.018	-16.741	0.333	-0.170	-0.026	472.000
-1.566	0.865	-19.937	0.362	-0.201	-0.028	331.000
-1.070	0.613	-18.363	0.361	-0.221	-0.020	331.000
-5.012	-2.925	-21.113	0.347	-0.173	-0.015	331.000
-0.877	1.096	-18.233	0.352	-0.165	-0.029	29.000
-0.892	0.274	-21.357	0.375	-0.162	-0.039	11.000
-2.567	1.391	-23.419	0.394	-0.185	-0.031	0.000
-0.754	1.285	-23.702	0.388	-0.198	-0.024	0.000
-1.645	1.014	-23.205	0.386	-0.193	-0.028	0.000
1.779	1.401	-24.462	0.391	-0.114	0.011	12.000
3.211	1.520	-26.580	0.415	-0.044	0.033	12.000
6.094	1.784	-25.875	0.429	-0.024	0.040	12.000
4.933	1.844	-28.206	0.427	-0.133	0.078	12.000
3.293	1.763	-24.445	0.446	-0.045	0.012	389.000
0.703	0.557	-27.342	0.460	-0.109	0.049	532.000
0.816	1.224	-28.458	0.469	-0.069	0.026	532.000
3.175	1.259	-28.987	0.483	-0.050	0.032	532.000
3.294	0.841	-29.339	0.490	-0.010	0.041	1267.000
4.180	1.341	-29.967	0.509	0.007	0.036	1502.000
4.384	0.723	-31.083	0.518	0.020	0.051	1694.000
3.593	1.041	-31.239	0.534	0.019	0.045	1694.000
2.707	0.898	-31.965	0.542	0.057	0.025	1694.000
4.586	0.587	-31.875	0.541	0.058	0.061	3076.000
2.353	1.092	-32.436	0.556	0.060	0.042	3206.000
2.796	0.533	-31.683	0.545	0.078	0.049	3206.000
2.763	0.640	-32.900	0.558	0.084	0.051	3206.000
2.278	1.302	-34.045	0.571	0.100	0.050	4900.000
3.058	0.648	-33.967	0.569	0.142	0.027	5205.000
2.914	0.390	-31.465	0.548	0.143	0.058	5612.000
4.057	0.427	-32.077	0.540	0.173	0.037	5612.000
3.183	0.751	-32.456	0.552	0.194	0.046	5612.000
3.690	1.000	-33.504	0.565	0.219	0.054	6593.000
4.052	0.597	-34.201	0.572	0.220	0.037	6593.000
2.853	0.499	-34.385	0.576	0.235	0.050	7265.000
4.781	0.631	-32.227	0.547	0.200	0.055	7425.000
2.242	0.434	-32.087	0.553	0.230	0.036	7425.000
2.818	0.387	-32.584	0.555	0.243	0.073	7425.000
-0.567	-1.038	-31.464	0.552	0.352	-0.002	7882.000
5.605	0.655	-31.083	0.541	0.128	0.028	7882.000
1.372	-1.067	-30.070	0.517	0.205	0.073	7882.000
1.542	0.228	-27.961	0.518	0.205	0.032	7882.000
2.451	-0.059	-30.177	0.526	0.197	0.044	7882.000
2.600	0.111	-29.368	0.520	0.193	0.025	8000.000
-0.028	-0.542	-26.582	0.509	0.092	-0.007	7998.000
1.841	-0.429	-25.660	0.490	0.016	-0.038	7980.000
-0.138	-0.058	-23.609	0.443	0.030	-0.041	7980.000
-5.208	-1.498	-24.703	0.424	0.131	-0.060	7754.000
1.997	-0.405	-23.070	0.420	0.013	-0.002	7671.000
-2.501	-0.590	-21.727	0.385	0.014	-0.048	7487.000
-2.343	-0.211	-19.116	0.373	0.004	-0.040	7371.000
-1.777	-0.178	-19.205	0.365	-0.038	-0.009	7054.000
-2.197	-0.449	-19.376	0.355	-0.043	-0.032	6745.000
-0.755	-0.048	-18.248	0.353	-0.027	-0.022	6656.000
-1.343	-0.238	-18.273	0.345	-0.045	-0.017	6656.000
-2.018	-0.406	-17.948	0.337	-0.043	-0.041	6656.000
-1.824	-0.312	-17.617	0.339	-0.067	-0.021	5455.000
-1.398	-0.357	-17.321	0.321	-0.046	-0.032	5044.000
-1.954	-0.219	-16.838	0.320	-0.083	-0.025	4457.000
-1.798	0.169	-16.166	0.311	-0.100	-0.020	4301.000
-1.584	-0.237	-15.727	0.303	-0.109	-0.024	4301.000
-0.615	-0.685	-15.523	0.302	-0.082	-0.007	4301.000
-1.094	-0.380	-15.373	0.302	-0.121	-0.012	2618.000
-1.073	0.024	-17.452	0.335	-0.120	-0.034	2347.000
-2.850	-0.325	-16.419	0.322	-0.157	-0.005	2106.000
-1.577	-0.675	-15.032	0.307	-0.133	-0.017	2106.000
-2.696	-0.400	-14.400	0.306	-0.168	-0.021	1195.000
-2.036	-0.188	-15.483	0.314	-0.162	-0.018	948.000
-2.332	-0.240	-18.159	0.344	-0.188	-0.018	948.000
-0.762	0.675	-18.056	0.341	-0.176	-0.028	948.000
-1.659	-0.021	-18.215	0.331	-0.161	-0.024	367.000
-1.227	-0.848	-17.650	0.330	-0.159	-0.021	236.000
-2.021	-1.689	-21.000	0.357	-0.141	-0.052	174.000
-0.329	0.343	-20.858	0.365	-0.195	-0.031	82.000
-3.453	0.608	-23.660	0.387	-0.202	-0.026	82.000
-3.021	0.673	-22.562	0.386	-0.167	-0.047	82.000
-1.333	0.947	-22.140	0.386	-0.202	-0.019	0.000
2.001	0.983	-23.503	0.378	-0.056	0.028	1.000
2.597	1.066	-24.182	0.407	-0.103	0.032	1.000
2.629	1.322	-25.511	0.421	-0.152	0.061	1.000
0.188	-1.436	-23.953	0.422	0.011	0.005	208.000
4.570	2.237	-26.574	0.449	-0.078	0.053	341.000
4.793	1.228	-27.719	0.455	-0.021	0.019	341.000
4.180	1.094	-27.108	0.459	-0.044	0.034	824.000
2.915	1.094	-28.958	0.478	-0.031	0.024	1026.000
2.864	0.992	-28.331	0.489	-0.044	0.038	1093.000
2.184	0.504	-28.819	0.501	-0.037	0.041	1093.000
2.348	1.045	-29.352	0.517	-0.016	0.053	1093.000
2.329	0.650	-29.909	0.526	0.009	0.039	2349.000
3.349	0.666	-31.180	0.539	0.039	0.045	2708.000
1.346	0.313	-30.287	0.527	0.045	0.052	2708.000
4.639	0.800	-31.349	0.544	0.095	0.047	2708.000
2.601	0.724	-33.011	0.556	0.083	0.039	4109.000
4.268	0.724	-33.454	0.561	0.152	0.048	4563.000
3.048	0.683	-32.624	0.559	0.143	0.049	4916.000
3.743	0.929	-33.831	0.564	0.124	0.028	4916.000
2.929	0.693	-34.462	0.572	0.144	0.060	4916.000
1.805	0.994	-34.498	0.578	0.170	0.044	6269.000
3.280	0.761	-34.351	0.572	0.187	0.054	6552.000
2.627	0.660	-33.340	0.561	0.185	0.045	6552.000
3.444	-0.142	-29.794	0.526	0.181	0.032	6552.000
3.349	0.302	-29.573	0.527	0.190	0.057	7255.000
1.774	0.057	-30.465	0.528	0.225	0.028	7371.000
3.027	0.575	-27.486	0.495	0.206	0.029	7626.000
1.901	0.747	-26.973	0.491	0.189	0.074	7720.000
8.296	0.812	-27.384	0.486	0.089	0.032	7720.000
3.558	-1.414	-28.662	0.471	0.247	0.048	7954.000
2.581	-0.278	-24.345	0.460	0.184	-0.018	7954.000
3.117	-0.759	-25.282	0.457	0.160	0.030	7954.000
2.278	-0.513	-23.299	0.450	0.163	0.016	8000.000
2.117	-0.663	-23.500	0.454	0.174	0.029	8000.000
-2.334	-0.881	-23.808	0.454	-0.022	-0.033	7988.000
-5.545	-0.102	-22.420	0.417	-0.044	-0.041	7988.000
-5.324	-0.592	-22.277	0.401	-0.064	-0.054	7988.000
-2.172	-0.517	-19.928	0.389	-0.078	-0.016	7773.000
-4.107	0.046	-19.728	0.383	-0.013	-0.030	7692.000
-0.836	-0.467	-20.118	0.368	-0.042	-0.028	7451.000
-1.669	-0.307	-19.402	0.356	-0.016	-0.010	7161.000
-1.467	-0.295	-19.060	0.362	-0.001	-0.028	7161.000
-0.843	-0.288	-19.239	0.351	-0.028	-0.042	7161.000
-2.548	-0.604	-18.343	0.349	-0.048	-0.013	6295.000
-1.632	-0.336	-18.021	0.345	-0.056	-0.023	6295.000
-2.090	-0.338	-17.379	0.335	-0.062	-0.033	5628.000
-1.460	-0.411	-17.310	0.326	-0.058	-0.025	5512.000
-2.621	-0.701	-17.306	0.320	-0.080	-0.028	4773.000
-1.589	-0.040	-16.785	0.323	-0.085	-0.022	4645.000
-0.389	-0.457	-16.278	0.305	-0.045	-0.031	4645.000
-1.742	-0.319	-16.365	0.305	-0.104	-0.015	4645.000
-1.023	-0.221	-15.891	0.308	-0.078	-0.020	2985.000
-1.916	-0.438	-16.611	0.324	-0.126	-0.026	2985.000
-1.458	-0.356	-16.349	0.322	-0.105	-0.040	2408.000
-0.287	-0.200	-15.605	0.311	-0.115	-0.005	2408.000
-0.545	-0.281	-15.435	0.307	-0.103	-0.040	2408.000
-0.321	-0.356	-15.463	0.303	-0.099	-0.022	1352.000
-0.829	-0.393	-15.404	0.303	-0.110	-0.012	918.000
-1.369	-0.227	-17.484	0.331	-0.160	-0.028	799.000
-1.709	-0.377	-16.742	0.338	-0.155	-0.036	799.000
-1.367	-0.111	-17.497	0.335	-0.161	-0.029	411.000
-1.900	-1.061	-19.804	0.359	-0.186	-0.027	203.000
-2.866	-1.885	-22.853	0.359	-0.283	0.037	176.000
3.532	3.458	-21.687	0.405	-0.266	-0.069	176.000
-2.233	0.863	-22.964	0.391	-0.164	-0.030	176.000
-1.587	0.387	-22.066	0.384	-0.211	-0.021	0.000
-0.932	0.808	-24.396	0.402	-0.190	-0.020	2.000
3.826	1.947	-26.720	0.416	-0.061	0.027	30.000
5.054	1.732	-26.571	0.421	-0.078	0.047	30.000
0.677	0.575	-27.180	0.423	-0.031	0.045	30.000
5.448	3.345	-25.026	0.441	-0.026	-0.010	30.000
2.889	0.677	-28.494	0.439	-0.069	0.061	460.000
2.777	1.963	-27.718	0.471	-0.070	0.025	628.000
2.763	0.941	-28.929	0.472	-0.080	0.045	628.000
1.746	1.197	-28.699	0.488	-0.060	0.036	628.000
2.418	1.149	-29.527	0.503	-0.040	0.035	1393.000
3.037	0.689	-30.329	0.518	-0.030	0.049	1635.000
3.142	1.176	-30.841	0.530	0.000	0.044	1830.000
3.637	0.643	-31.512	0.538	0.044	0.068	1830.000
4.240	0.695	-32.520	0.545	0.046	0.036	1830.000
3.931	0.385	-32.236	0.540	0.059	0.046	3023.000
2.360	0.565	-30.929	0.531	0.064	0.074	3300.000
4.125	0.625	-28.388	0.510	0.103	0.025	4168.000
1.285	0.117	-28.907	0.511	0.065	0.039	4724.000
3.941	1.043	-30.637	0.529	0.143	0.074	5119.000
1.843	0.074	-28.455	0.501	0.102	0.017	5345.000
3.168	0.342	-30.406	0.519	0.154	0.036	5345.000
2.085	0.787	-31.800	0.538	0.165	0.055	6295.000
2.655	0.118	-30.840	0.526	0.139	0.036	6577.000
2.896	0.524	-31.350	0.545	0.166	0.055	6577.000
1.891	0.045	-30.190	0.526	0.160	0.039	7143.000
2.761	0.392	-29.671	0.517	0.190	0.042	7143.000
2.521	0.562	-29.466	0.526	0.204	0.036	7143.000
2.155	0.471	-31.174	0.529	0.213	0.032	7688.000
-0.136	-0.165	-29.647	0.524	0.245	0.032	7824.000
5.535	-0.224	-30.437	0.519	0.175	0.090	7824.000
0.251	-0.967	-30.146	0.522	0.250	0.021	7824.000
3.822	0.338	-30.430	0.523	0.226	0.041	7824.000
1.761	-0.303	-27.822	0.506	0.199	0.049	8000.000
0.950	-0.474	-27.785	0.501	0.160	0.024	7998.000
-3.342	-1.047	-25.100	0.469	-0.008	-0.056	7979.000
0.676	-0.260	-23.343	0.440	0.027	-0.015	7885.000
3.716	0.169	-24.241	0.433	-0.036	0.019	7808.000
-2.394	-0.513	-23.164	0.403	0.051	-0.068	7695.000
-0.877	-0.493	-21.714	0.394	-0.018	0.002	7695.000
-2.041	0.205	-21.214	0.391	-0.012	-0.029	7339.000
-1.490	-0.199	-20.168	0.381	-0.028	-0.047	7339.000
-1.685	-0.335	-20.139	0.366	-0.011	-0.014	7339.000
-1.858	-0.142	-18.567	0.354	-0.036	-0.032	6679.000
-1.686	-0.478	-18.378	0.346	-0.032	-0.033	6679.000
-1.110	-0.546	-17.997	0.339	-0.051	-0.010	6679.000
-1.414	-0.248	-17.392	0.328	-0.036	-0.041	6679.000
-1.313	-0.185	-16.801	0.322	-0.064	-0.047	5057.000
-1.509	-0.298	-16.535	0.312	-0.054	0.002	4790.000
-0.576	0.194	-15.626	0.304	-0.043	-0.038	4465.000
-2.053	-0.213	-15.697	0.291	-0.100	-0.020	4465.000
-1.209	-0.308	-14.751	0.293	-0.080	-0.002	3248.000
-1.019	-0.970	-15.516	0.299	-0.118	-0.023	2718.000
-1.404	-0.525	-16.243	0.318	-0.116	-0.023	2609.000
-0.868	-0.615	-16.960	0.330	-0.112	-0.038	1972.000
-1.777	-0.198	-18.304	0.344	-0.161	-0.008	1972.000
-0.742	-0.390	-19.144	0.353	-0.152	-0.025	1972.000
-1.875	-0.119	-18.330	0.346	-0.168	-0.022	1972.000
-0.972	-0.385	-17.116	0.329	-0.142	-0.011	1972.000
-1.258	-0.284	-15.675	0.324	-0.138	-0.034	658.000
-1.488	-0.479	-15.564	0.311	-0.155	-0.024	470.000
-1.050	-0.535	-16.925	0.329	-0.176	-0.021	313.000
-2.377	0.913	-18.251	0.325	-0.195	-0.017	165.000
-3.597	-0.629	-20.931	0.370	-0.208	-0.060	78.000
-4.520	0.088	-21.937	0.376	-0.235	-0.038	78.000
0.488	0.824	-20.558	0.375	-0.184	-0.023	78.000
-1.173	0.292	-20.809	0.376	-0.186	-0.027	0.000
2.437	1.260	-23.797	0.381	-0.036	0.039	11.000
2.667	1.462	-23.953	0.402	-0.109	0.036	11.000
0.545	0.903	-25.435	0.406	-0.114	0.044	11.000
2.368	1.203	-22.944	0.416	-0.055	-0.001	256.000
1.759	0.144	-26.774	0.423	-0.053	0.056	443.000
4.778	1.988	-25.587	0.450	-0.041	0.013	562.000
3.653	1.304	-27.911	0.459	-0.061	0.039	562.000
2.708	0.931	-27.700	0.467	-0.031	0.035	562.000
2.846	0.567	-28.373	0.480	-0.037	0.033	1305.000
2.428	0.882	-29.665	0.505	-0.017	0.048	1668.000
2.434	0.596	-30.177	0.519	0.001	0.043	1668.000
3.333	0.773	-30.753	0.531	-0.002	0.047	2299.000
3.423	0.411	-31.530	0.537	0.043	0.040	2664.000
1.311	0.676	-32.341	0.546	0.043	0.046	2883.000
4.452	1.288	-32.831	0.558	0.094	0.058	2883.000
3.244	0.829	-33.504	0.565	0.091	0.048	2883.000
3.783	0.971	-33.065	0.561	0.144	0.048	4374.000
4.728	1.570	-34.642	0.575	0.142	0.074	5155.000
3.413	0.742	-34.949	0.576	0.168	0.023	5155.000
3.446	0.896	-35.288	0.585	0.164	0.074	5850.000
2.075	0.788	-35.066	0.574	0.158	0.046	5968.000
3.205	1.146	-35.056	0.586	0.188	0.042	6467.000
2.345	0.979	-34.385	0.576	0.181	0.052	6467.000
3.643	0.932	-35.440	0.587	0.205	0.031	6467.000
4.134	0.932	-35.797	0.591	0.233	0.066	6467.000
2.790	1.292	-36.702	0.596	0.267	0.038	6467.000
3.896	0.606	-35.843	0.591	0.270	0.053	7655.000
0.966	0.665	-34.607	0.574	0.243	0.064	7765.000
9.530	0.840	-32.748	0.570	0.142	0.072	7765.000
3.382	0.639	-33.519	0.572	0.310	0.035	7765.000
4.196	0.792	-33.783	0.574	0.233	0.053	7998.000
2.464	-0.213	-30.720	0.545	0.177	0.018	7998.000
